Size (bp),Intensity
0.58,1788.81
1.00,1546.52
2.00,1061.47
2.42,591.05
2.84,284.77
3.26,138.99
3.68,111.93
4.10,84.88
4.52,68.11
4.94,64.58
5.36,65.46
5.79,66.57
6.21,65.86
6.63,62.46
7.05,56.37
7.47,48.73
7.89,40.74
8.31,32.93
8.73,26.09
9.15,21.30
9.57,18.57
9.99,17.75
10.41,16.93
10.83,16.12
11.25,16.46
11.67,17.27
12.09,17.40
12.52,16.81
12.94,15.59
13.36,13.40
13.78,10.95
14.20,9.14
14.62,7.62
15.04,6.37
15.46,6.34
15.88,7.04
16.30,7.73
16.72,9.81
17.14,11.97
17.56,13.37
17.98,13.22
18.40,12.20
18.82,11.67
19.24,11.62
19.67,11.25
20.09,10.11
20.51,8.42
20.93,7.16
21.35,7.11
21.77,7.37
22.19,7.64
22.61,7.42
23.03,6.23
23.45,5.02
23.87,4.47
24.29,4.25
24.71,3.58
25.13,2.69
25.55,2.83
25.97,4.21
26.39,5.25
26.82,4.71
27.24,3.05
27.66,1.60
28.08,1.43
28.50,1.27
28.92,2.08
29.34,3.10
29.76,3.32
30.18,2.74
30.60,2.04
31.02,1.55
31.44,1.32
31.86,1.37
32.28,1.68
32.70,2.26
33.12,2.79
33.55,2.91
33.97,2.95
34.39,2.98
34.81,3.18
35.23,3.23
35.65,3.21
36.07,3.18
36.49,3.07
36.91,3.46
37.33,4.65
37.75,6.09
38.17,7.23
38.59,7.62
39.01,6.98
39.43,5.70
39.85,5.04
40.27,4.39
40.70,3.34
41.12,2.90
41.54,3.39
41.96,4.48
42.38,5.58
42.80,6.29
43.22,6.45
43.64,6.08
44.06,5.36
44.48,4.75
44.90,4.84
45.32,5.30
45.74,5.33
46.16,5.30
46.58,5.28
47.00,5.56
47.42,5.66
47.85,5.75
48.27,7.02
48.69,9.67
49.11,12.56
49.53,14.61
49.95,15.56
50.37,15.91
50.79,16.55
51.21,17.80
51.63,18.91
52.05,19.03
52.47,19.14
52.89,18.83
53.31,18.86
53.73,19.44
54.15,20.22
54.58,21.33
55.00,23.13
55.42,25.33
55.84,26.87
56.26,26.44
56.68,23.55
57.10,19.01
57.52,14.57
57.94,13.15
58.36,11.73
58.78,10.49
59.20,9.80
59.62,8.98
60.04,8.24
60.46,8.04
60.88,7.99
61.30,7.20
61.73,5.82
62.15,5.18
62.57,5.82
62.99,7.03
63.41,8.07
63.83,8.62
64.25,8.59
64.67,8.56
65.09,8.40
65.51,8.59
65.93,8.51
66.35,7.68
66.77,6.79
67.19,6.48
67.61,6.56
68.03,6.83
68.45,7.40
68.88,8.40
69.30,9.72
69.72,10.97
70.14,11.36
70.56,11.75
70.98,12.02
71.40,12.33
71.82,13.36
72.24,14.84
72.66,15.89
73.08,16.19
73.50,15.99
73.92,15.67
74.34,15.53
74.76,15.08
75.18,13.72
75.61,12.28
76.03,12.14
76.45,11.99
76.87,12.52
77.29,12.83
77.71,12.60
78.13,12.00
78.55,11.22
78.97,10.47
79.39,10.16
79.81,10.57
80.23,11.40
80.65,11.82
81.07,11.21
81.49,10.23
81.91,10.37
82.33,11.19
82.76,12.02
83.18,14.41
83.60,16.99
84.02,19.68
84.44,22.81
84.86,26.65
85.28,30.32
85.70,32.24
86.12,31.81
86.54,29.45
86.96,25.68
87.38,21.43
87.80,18.25
88.22,17.33
88.64,16.42
89.06,14.60
89.48,12.57
89.91,11.90
90.33,13.31
90.75,15.26
91.17,15.58
91.59,13.62
92.01,10.76
92.43,8.83
92.85,8.51
93.27,9.20
93.69,9.84
94.11,9.87
94.53,9.91
94.95,9.78
95.37,10.22
95.79,11.36
96.21,12.69
96.64,13.61
97.06,13.97
97.48,14.03
97.90,13.88
98.32,13.50
98.74,13.39
99.16,13.94
99.58,14.47
100.00,13.91
101.00,13.18
101.52,12.46
102.04,11.44
102.56,11.41
103.08,11.63
103.61,11.61
104.13,11.86
104.65,12.60
105.17,13.21
105.69,13.40
106.21,13.52
106.73,13.74
107.25,13.74
107.77,13.46
108.29,13.37
108.82,13.29
109.34,13.38
109.86,13.62
110.38,14.09
110.90,15.32
111.42,17.99
111.94,21.99
112.46,26.76
112.98,32.59
113.51,39.82
114.03,47.53
114.55,53.84
115.07,56.42
115.59,55.16
116.11,53.90
116.63,47.92
117.15,41.34
117.67,35.57
118.19,31.39
118.72,29.31
119.24,28.17
119.76,26.39
120.28,24.25
120.80,22.75
121.32,21.94
121.84,21.36
122.36,20.59
122.88,19.33
123.41,18.57
123.93,17.81
124.45,17.08
124.97,18.12
125.49,20.55
126.01,22.64
126.53,23.25
127.05,22.63
127.57,21.66
128.09,21.16
128.62,21.47
129.14,22.19
129.66,22.55
130.18,22.33
130.70,22.23
131.22,22.13
131.74,22.47
132.26,22.93
132.78,22.78
133.31,22.43
133.83,22.71
134.35,23.54
134.87,24.27
135.39,25.02
135.91,26.32
136.43,27.69
136.95,28.16
137.47,28.13
137.99,28.53
138.52,28.93
139.04,30.63
139.56,32.16
140.08,33.13
140.60,34.02
141.12,35.01
141.64,35.82
142.16,36.37
142.68,36.88
143.21,37.68
143.73,38.79
144.25,40.28
144.77,42.45
145.29,44.82
145.81,45.47
146.33,46.12
146.85,46.26
147.37,46.73
147.89,48.17
148.42,49.56
148.94,50.67
149.46,52.89
149.98,56.70
150.50,60.54
151.02,62.79
151.54,63.51
152.06,64.03
152.58,65.20
153.11,65.91
153.63,66.62
154.15,67.91
154.67,69.34
155.19,70.86
155.71,72.16
156.23,73.59
156.75,75.52
157.27,77.73
157.79,79.99
158.32,82.06
158.84,83.88
159.36,85.66
159.88,88.02
160.40,89.71
160.92,91.41
161.44,95.39
161.96,99.19
162.48,102.47
163.01,105.16
163.53,107.79
164.05,111.24
164.57,115.05
165.09,117.90
165.61,119.76
166.13,121.60
166.65,123.80
167.17,126.12
167.69,128.32
168.22,129.55
168.74,130.79
169.26,134.46
169.78,139.27
170.30,143.87
170.82,147.88
171.34,152.10
171.86,156.46
172.38,160.45
172.91,164.23
173.43,168.18
173.95,172.45
174.47,176.90
174.99,181.37
175.51,183.89
176.03,186.40
176.55,192.37
177.07,197.76
177.59,201.12
178.12,203.62
178.64,207.20
179.16,212.14
179.68,217.45
180.20,222.48
180.72,227.78
181.24,233.92
181.76,240.26
182.28,245.69
182.81,247.80
183.33,249.92
183.85,253.94
184.37,258.81
184.89,264.76
185.41,271.31
185.93,277.30
186.45,281.77
186.97,285.45
187.49,289.94
188.02,295.42
188.54,300.86
189.06,305.92
189.58,310.97
190.10,315.92
190.62,318.37
191.14,320.81
191.66,325.67
192.18,330.07
192.71,334.38
193.23,339.32
193.75,344.19
194.27,348.43
194.79,352.83
195.31,357.90
195.83,362.97
196.35,367.38
196.87,370.96
197.39,374.07
197.92,375.79
198.44,377.52
198.96,382.07
199.48,387.40
200.00,392.09
201.00,395.63
201.59,399.73
202.17,405.80
202.76,412.52
203.34,417.45
203.93,420.01
204.51,421.84
205.10,425.04
205.69,430.01
206.27,432.54
206.86,435.07
207.44,439.03
208.03,442.57
208.62,446.62
209.20,450.81
209.79,454.53
210.37,458.21
210.96,462.64
211.54,467.70
212.13,472.61
212.72,476.79
213.30,480.54
213.89,484.50
214.47,488.87
215.06,491.13
215.64,493.39
216.23,497.34
216.82,500.11
217.40,502.41
217.99,505.86
218.57,510.48
219.16,514.72
219.75,518.03
220.33,521.31
220.92,525.45
221.50,530.74
222.09,536.94
222.67,543.36
223.26,545.98
223.85,548.60
224.43,551.55
225.02,553.08
225.60,555.14
226.19,558.91
226.78,564.58
227.36,571.16
227.95,576.60
228.53,580.29
229.12,584.05
229.70,589.19
230.29,594.66
230.88,599.22
231.46,601.07
232.05,602.91
232.63,605.68
233.22,607.44
233.80,609.60
234.39,613.68
234.98,619.13
235.56,624.13
236.15,627.54
236.73,629.74
237.32,632.10
237.91,635.31
238.49,638.85
239.08,642.20
239.66,645.13
240.25,646.32
240.83,647.51
241.42,649.53
242.01,651.57
242.59,653.45
243.18,654.46
243.76,654.53
244.35,654.71
244.93,656.07
245.52,658.42
246.11,661.28
246.69,664.67
247.28,668.17
247.86,670.64
248.45,670.85
249.04,671.06
249.62,669.51
250.21,667.65
250.79,667.40
251.38,669.01
251.96,671.26
252.55,672.97
253.14,673.73
253.72,673.89
254.31,673.92
254.89,674.28
255.48,675.53
256.07,677.61
256.65,678.48
257.24,679.35
257.82,679.63
258.41,678.66
258.99,677.56
259.58,677.25
260.17,677.96
260.75,679.13
261.34,679.68
261.92,679.04
262.51,677.75
263.09,676.68
263.68,676.16
264.27,676.26
264.85,676.83
265.44,677.05
266.02,677.27
266.61,677.02
267.20,676.71
267.78,677.23
268.37,678.33
268.95,679.44
269.54,680.26
270.12,680.46
270.71,680.07
271.30,679.40
271.88,678.63
272.47,678.23
273.05,678.87
273.64,679.64
274.22,680.42
274.81,681.46
275.40,680.92
275.98,679.71
276.57,679.54
277.15,680.95
277.74,683.51
278.33,685.84
278.91,686.46
279.50,686.00
280.08,685.93
280.67,686.34
281.25,687.00
281.84,687.57
282.43,688.14
283.01,689.22
283.60,689.76
284.18,690.51
284.77,692.12
285.36,694.17
285.94,695.55
286.53,695.78
287.11,695.91
287.70,696.75
288.28,697.64
288.87,697.89
289.46,697.89
290.04,698.31
290.63,698.80
291.21,699.28
291.80,700.78
292.38,703.08
292.97,705.91
293.56,708.25
294.14,709.72
294.73,711.03
295.31,712.60
295.90,713.93
296.49,715.07
297.07,716.86
297.66,719.38
298.24,721.82
298.83,722.72
299.41,723.61
300.00,724.55
301.00,724.85
301.70,725.26
302.39,726.12
303.09,727.05
303.79,728.21
304.49,730.04
305.18,731.77
305.88,732.62
306.58,733.32
307.27,734.84
307.97,737.32
308.67,738.70
309.37,740.09
310.06,741.71
310.76,742.13
311.46,743.23
312.15,745.76
312.85,748.60
313.55,750.76
314.25,751.95
314.94,752.53
315.64,753.28
316.34,754.71
317.04,757.03
317.73,759.90
318.43,762.25
319.13,762.75
319.82,763.25
320.52,763.64
321.22,764.98
321.92,767.70
322.61,770.58
323.31,772.59
324.01,774.17
324.70,775.70
325.40,776.91
326.10,778.09
326.80,779.61
327.49,781.02
328.19,782.31
328.89,783.12
329.58,783.92
330.28,785.61
330.98,787.11
331.68,788.77
332.37,790.66
333.07,791.92
333.77,791.96
334.46,791.89
335.16,793.49
335.86,796.68
336.56,799.79
337.25,802.21
337.95,804.90
338.65,806.27
339.35,807.65
340.04,809.01
340.74,809.43
341.44,810.88
342.13,813.27
342.83,814.37
343.53,813.26
344.23,811.76
344.92,812.21
345.62,815.30
346.32,819.77
347.01,823.43
347.71,825.04
348.41,824.99
349.11,824.57
349.80,824.15
350.50,823.57
351.20,824.29
351.89,825.63
352.59,826.03
353.29,825.40
353.99,824.51
354.68,823.93
355.38,824.48
356.08,826.04
356.77,827.40
357.47,828.25
358.17,829.18
358.87,829.79
359.56,830.40
360.26,831.86
360.96,833.44
361.65,834.56
362.35,834.84
363.05,834.76
363.75,835.06
364.44,835.91
365.14,836.80
365.84,837.16
366.54,836.97
367.23,836.66
367.93,836.84
368.63,837.41
369.32,837.99
370.02,839.55
370.72,840.53
371.42,840.74
372.11,840.52
372.81,840.31
373.51,840.55
374.20,841.10
374.90,841.52
375.60,841.46
376.30,840.55
376.99,839.38
377.69,839.41
378.39,841.16
379.08,842.45
379.78,843.74
380.48,845.86
381.18,846.60
381.87,845.46
382.57,842.68
383.27,839.68
383.96,837.77
384.66,836.58
385.36,835.27
386.06,833.90
386.75,832.51
387.45,830.63
388.15,828.09
388.85,826.66
389.54,825.24
390.24,823.02
390.94,822.15
391.63,821.96
392.33,821.38
393.03,820.18
393.73,818.57
394.42,817.03
395.12,815.95
395.82,815.18
396.51,814.12
397.21,811.86
397.91,808.20
398.61,806.32
399.30,804.43
400.00,801.84
401.00,800.42
401.72,799.43
402.45,798.33
403.17,797.00
403.89,795.37
404.61,793.03
405.34,790.05
406.06,787.55
406.78,786.19
407.50,785.09
408.23,783.33
408.95,780.95
409.67,779.53
410.39,778.11
411.12,774.58
411.84,770.47
412.56,766.45
413.28,763.38
414.01,761.71
414.73,760.97
415.45,759.89
416.18,757.55
416.90,754.44
417.62,752.07
418.34,751.21
419.07,750.66
419.79,749.40
420.51,748.15
421.23,742.94
421.96,736.99
422.68,732.54
423.40,730.11
424.12,729.40
424.85,729.40
425.57,727.82
426.29,723.41
427.01,718.29
427.74,715.21
428.46,714.04
429.18,712.54
429.91,710.90
430.63,709.26
431.35,704.81
432.07,700.84
432.80,698.02
433.52,695.54
434.24,692.51
434.96,688.87
435.69,684.85
436.41,680.95
437.13,677.98
437.85,676.07
438.58,674.17
439.30,671.28
440.02,667.68
440.74,666.08
441.47,664.48
442.19,662.00
442.91,659.14
443.64,655.18
444.36,651.20
445.08,647.79
445.80,643.89
446.53,639.55
447.25,636.42
447.97,634.70
448.69,632.86
449.42,630.00
450.14,626.47
450.86,624.63
451.58,622.78
452.31,618.89
453.03,614.31
453.75,609.22
454.47,605.06
455.20,602.92
455.92,601.92
456.64,600.50
457.36,598.00
458.09,594.46
458.81,590.35
459.53,586.28
460.26,582.22
460.98,580.21
461.70,578.19
462.42,575.05
463.15,573.43
463.87,572.68
464.59,570.88
465.31,566.76
466.04,561.96
466.76,559.02
467.48,557.65
468.20,555.63
468.93,551.98
469.65,547.41
470.37,543.19
471.09,540.01
471.82,538.76
472.54,537.51
473.26,534.70
473.99,531.16
474.71,527.88
475.43,525.60
476.15,523.63
476.88,521.53
477.60,519.65
478.32,517.92
479.04,515.90
479.77,513.64
480.49,511.53
481.21,509.75
481.93,508.67
482.66,507.59
483.38,504.12
484.10,499.70
484.82,495.86
485.55,493.23
486.27,490.62
486.99,486.86
487.72,482.64
488.44,479.53
489.16,477.80
489.88,476.34
490.61,474.47
491.33,472.30
492.05,471.03
492.77,469.77
493.50,466.66
494.22,463.45
494.94,461.05
495.66,459.63
496.39,458.60
497.11,457.06
497.83,454.13
498.55,449.85
499.28,445.60
500.00,442.74
501.00,441.39
502.01,440.03
503.02,436.94
504.03,434.87
505.04,432.80
506.05,429.60
507.06,427.50
508.07,425.36
509.08,422.57
510.09,419.35
511.10,416.57
512.11,414.96
513.12,413.99
514.13,412.13
515.14,409.02
516.15,405.90
517.16,403.10
518.17,401.72
519.18,400.34
520.19,398.60
521.20,397.84
522.21,395.62
523.22,391.56
524.23,388.49
525.24,387.35
526.26,385.65
527.27,382.07
528.28,378.15
529.29,375.10
530.30,372.48
531.31,369.79
532.32,368.50
533.33,367.21
534.34,365.20
535.35,364.25
536.36,363.93
537.37,362.76
538.38,360.18
539.39,357.33
540.40,354.90
541.41,352.34
542.42,349.44
543.43,346.97
544.44,345.00
545.45,342.50
546.46,339.33
547.47,337.91
548.48,336.50
549.49,334.41
550.50,332.59
551.51,330.72
552.52,328.92
553.53,327.58
554.54,326.52
555.55,325.20
556.56,323.78
557.57,322.60
558.58,321.27
559.59,319.24
560.60,316.64
561.61,315.49
562.62,314.33
563.63,312.91
564.64,312.02
565.65,310.97
566.66,309.55
567.67,307.80
568.68,305.82
569.69,303.91
570.70,302.49
571.71,301.37
572.72,299.74
573.73,297.51
574.74,295.49
575.76,294.80
576.77,294.10
577.78,292.87
578.79,291.16
579.80,288.68
580.81,285.74
581.82,283.51
582.83,282.88
583.84,283.24
584.85,283.13
585.86,281.84
586.87,279.59
587.88,276.87
588.89,274.06
589.90,271.26
590.91,269.85
591.92,268.43
592.93,266.00
593.94,264.57
594.95,263.97
595.96,263.42
596.97,262.50
597.98,261.04
598.99,259.12
600.00,257.04
601.00,255.00
602.18,252.92
603.36,250.83
604.54,249.06
605.71,248.57
606.89,248.08
608.07,247.87
609.25,247.95
610.43,247.98
611.61,247.94
612.79,247.42
613.96,245.80
615.14,243.19
616.32,240.81
617.50,239.75
618.68,239.53
619.86,238.85
621.04,237.36
622.21,236.60
623.39,235.85
624.57,234.80
625.75,233.83
626.93,232.47
628.11,230.99
629.29,229.65
630.46,228.11
631.64,226.69
632.82,226.24
634.00,226.27
635.18,225.38
636.36,223.23
637.54,220.46
638.71,217.80
639.89,216.90
641.07,215.99
642.25,215.23
643.43,214.62
644.61,213.57
645.79,212.82
646.96,212.77
648.14,212.27
649.32,210.32
650.50,207.76
651.68,205.95
652.86,204.70
654.04,202.96
655.21,200.71
656.39,199.58
657.57,198.45
658.75,196.07
659.93,193.82
661.11,192.56
662.29,192.26
663.46,191.76
664.64,190.01
665.82,187.11
667.00,184.29
668.18,182.98
669.36,183.51
670.54,184.69
671.71,184.75
672.89,183.99
674.07,183.23
675.25,181.12
676.43,179.28
677.61,177.62
678.79,175.98
679.96,174.78
681.14,174.00
682.32,172.78
683.50,170.99
684.68,169.22
685.86,167.46
687.04,165.60
688.21,164.22
689.39,163.61
690.57,163.54
691.75,163.47
692.93,163.28
694.11,162.22
695.29,160.04
696.46,157.86
697.64,157.05
698.82,157.38
700.00,157.07
701.00,155.13
702.98,152.72
704.96,151.29
706.94,150.94
708.92,150.76
710.90,150.16
712.88,149.57
714.86,147.46
716.84,145.96
718.82,145.90
720.80,146.29
722.78,145.93
724.76,144.90
726.74,144.06
728.72,143.77
730.70,143.71
732.68,143.26
734.66,141.84
736.64,139.67
738.62,138.82
740.60,137.96
742.58,137.09
744.56,135.81
746.54,133.57
748.52,131.43
750.50,130.28
752.48,130.03
754.46,130.14
756.44,129.83
758.42,128.44
760.40,126.36
762.38,125.09
764.36,125.47
766.34,126.41
768.32,126.47
770.30,126.53
772.28,126.01
774.26,125.42
776.24,124.23
778.22,122.36
780.20,121.13
782.18,121.22
784.16,121.58
786.14,120.94
788.12,119.20
790.10,117.41
792.08,116.64
794.06,116.92
796.04,117.09
798.02,117.25
800.00,116.61
801.00,114.91
803.36,113.22
805.71,112.61
808.07,112.69
810.43,112.21
812.79,110.75
815.14,109.10
817.50,108.11
819.86,107.91
822.21,107.90
824.57,107.43
826.93,106.91
829.29,106.40
831.64,105.24
834.00,104.40
836.36,103.94
838.71,103.82
841.07,103.96
843.43,104.15
845.79,103.82
848.14,102.45
850.50,100.37
852.86,98.46
855.21,97.17
857.57,96.48
859.93,96.07
862.29,95.78
864.64,95.48
867.00,94.59
869.36,93.64
871.71,93.04
874.07,92.81
876.43,92.11
878.79,90.84
881.14,90.17
883.50,90.36
885.86,90.34
888.21,89.59
890.57,88.59
892.93,87.81
895.29,87.59
897.64,87.37
900.00,87.34
901.00,87.50
904.67,87.27
908.33,86.36
912.00,85.31
915.67,84.95
919.33,85.22
923.00,85.16
926.67,84.19
930.33,82.49
934.00,80.78
937.67,80.02
941.33,80.04
945.00,80.06
948.67,79.99
952.33,79.88
956.00,80.27
959.67,80.46
963.33,79.69
967.00,78.57
970.67,77.77
974.33,77.10
978.00,76.32
981.67,75.76
985.33,75.57
989.00,75.24
992.67,74.33
996.33,73.65
1000.00,72.98
1001.00,71.71
1006.10,71.24
1011.21,71.62
1016.31,72.32
1021.41,73.18
1026.51,73.88
1031.62,73.70
1036.72,72.54
1041.82,71.27
1046.92,70.93
1052.03,71.74
1057.13,72.63
1062.23,72.53
1067.33,72.43
1072.44,71.40
1077.54,70.42
1082.64,69.50
1087.74,68.43
1092.85,67.68
1097.95,67.61
1103.05,67.97
1108.15,68.34
1113.26,68.23
1118.36,67.11
1123.46,64.98
1128.56,62.87
1133.67,62.35
1138.77,61.83
1143.87,61.65
1148.97,61.67
1154.08,61.70
1159.18,61.69
1164.28,61.50
1169.38,61.39
1174.49,61.91
1179.59,62.95
1184.69,63.27
1189.79,61.86
1194.90,59.63
1200.00,58.25
1201.00,58.19
1210.06,58.43
1219.12,58.67
1228.18,58.94
1237.24,58.85
1246.30,58.68
1255.36,58.35
1264.42,57.60
1273.48,57.07
1282.55,57.35
1291.61,57.47
1300.67,56.41
1309.73,54.72
1318.79,53.55
1327.85,53.26
1336.91,53.37
1345.97,53.49
1355.03,54.01
1364.09,54.71
1373.15,55.13
1382.21,54.88
1391.27,54.38
1400.33,54.12
1409.39,53.70
1418.45,52.81
1427.52,52.16
1436.58,52.07
1445.64,51.49
1454.70,50.24
1463.76,50.05
1472.82,49.85
1481.88,50.82
1490.94,51.79
1500.00,51.96
1501.00,51.43
1510.24,50.25
1519.48,49.17
1528.72,49.00
1537.96,49.06
1547.20,48.64
1556.44,48.08
1565.69,47.65
1574.93,47.54
1584.17,48.15
1593.41,48.63
1602.65,49.11
1611.89,49.28
1621.13,48.47
1630.37,47.66
1639.61,47.48
1648.85,47.59
1658.09,47.33
1667.33,46.42
1676.57,45.23
1685.81,44.69
1695.06,45.56
1704.30,47.33
1713.54,48.38
1722.78,48.11
1732.02,47.85
1741.26,46.39
1750.50,45.11
1759.74,44.41
1768.98,44.02
1778.22,43.77
1787.46,43.86
1796.70,44.19
1805.94,44.21
1815.19,44.10
1824.43,44.68
1833.67,45.71
1842.91,46.11
1852.15,45.79
1861.39,45.46
1870.63,44.13
1879.87,43.15
1889.11,43.54
1898.35,44.94
1907.59,45.88
1916.83,45.65
1926.07,44.88
1935.31,44.52
1944.56,44.74
1953.80,44.93
1963.04,44.77
1972.28,44.57
1981.52,44.57
1990.76,44.84
2000.00,45.10
2001.00,46.26
2018.22,47.04
2035.45,46.67
2052.67,45.82
2069.90,45.00
2087.12,43.64
2104.34,41.76
2121.57,40.39
2138.79,40.29
2156.02,41.04
2173.24,41.45
2190.47,41.22
2207.69,41.10
2224.91,40.98
2242.14,40.89
2259.36,40.92
2276.59,41.76
2293.81,43.48
2311.03,44.66
2328.26,44.36
2345.48,43.37
2362.71,42.55
2379.93,41.94
2397.16,41.58
2414.38,41.42
2431.60,41.08
2448.83,40.67
2466.05,40.25
2483.28,39.24
2500.50,38.89
2517.72,39.64
2534.95,40.75
2552.17,41.39
2569.40,41.47
2586.62,40.89
2603.84,39.68
2621.07,38.60
2638.29,38.29
2655.52,38.47
2672.74,38.77
2689.97,39.15
2707.19,39.40
2724.41,39.66
2741.64,40.33
2758.86,40.93
2776.09,40.88
2793.31,40.08
2810.53,39.38
2827.76,39.44
2844.98,39.85
2862.21,40.05
2879.43,40.16
2896.66,40.34
2913.88,40.35
2931.10,39.90
2948.33,39.47
2965.55,39.04
2982.78,38.26
3000.00,37.87
3001.00,37.78
3025.99,37.79
3050.98,37.78
3075.98,37.64
3100.97,37.25
3125.96,36.59
3150.95,36.20
3175.94,36.70
3200.93,37.68
3225.93,38.06
3250.92,37.86
3275.91,37.67
3300.90,37.44
3325.89,37.62
3350.88,37.33
3375.87,36.20
3400.87,35.09
3425.86,34.42
3450.85,33.75
3475.84,32.94
3500.83,32.25
3525.82,31.84
3550.82,31.56
3575.81,30.95
3600.80,30.05
3625.79,29.77
3650.78,29.50
3675.77,29.52
3700.77,29.74
3725.76,29.88
3750.75,29.86
3775.74,29.85
3800.73,30.08
3825.73,30.47
3850.72,30.57
3875.71,30.16
3900.70,29.54
3925.69,28.97
3950.68,28.71
3975.68,28.82
4000.67,28.93
4025.66,29.26
4050.65,29.40
4075.64,29.80
4100.63,30.46
4125.62,30.60
4150.62,29.98
4175.61,28.94
4200.60,27.99
4225.59,27.43
4250.58,27.07
4275.58,26.76
4300.57,26.81
4325.56,27.10
4350.55,27.40
4375.54,28.42
4400.53,29.65
4425.52,30.60
4450.52,30.78
4475.51,30.35
4500.50,29.84
4525.49,29.39
4550.48,28.95
4575.48,28.43
4600.47,27.75
4625.46,27.22
4650.45,27.48
4675.44,28.45
4700.43,28.80
4725.42,29.15
4750.42,29.01
4775.41,28.34
4800.40,27.69
4825.39,27.30
4850.38,26.95
4875.37,26.44
4900.37,26.09
4925.36,26.12
4950.35,26.08
4975.34,25.95
5000.33,26.33
5025.33,26.86
5050.32,26.72
5075.31,26.58
5100.30,25.69
5125.29,25.39
5150.28,26.00
5175.27,26.50
5200.27,26.36
5225.26,26.33
5250.25,26.91
5275.24,27.71
5300.23,28.22
5325.23,28.14
5350.22,27.66
5375.21,27.68
5400.20,28.23
5425.19,28.79
5450.18,30.36
5475.17,31.52
5500.17,32.26
5525.16,33.08
5550.15,34.51
5575.14,37.04
5600.13,40.91
5625.12,46.24
5650.12,54.63
5675.11,70.02
5700.10,96.82
5725.09,138.43
5750.08,197.71
5775.08,236.74
5800.07,275.76
5825.06,369.49
5850.05,472.29
5875.04,576.15
5900.03,672.29
5925.02,751.49
5950.02,805.89
5975.01,831.29
6000.00,827.64
6024.79,797.28
6049.64,744.70
6074.48,677.12
6099.32,602.76
6124.16,565.44
6149.01,528.12
6173.85,457.17
6198.69,392.20
6223.53,334.95
6248.38,286.87
6273.22,248.40
6298.06,218.36
6322.90,194.58
6347.75,175.37
6372.59,159.98
6397.43,147.72
6422.27,137.72
6447.12,129.63
6471.96,123.41
6496.80,120.96
6521.65,118.52
6546.49,113.91
6571.33,108.99
6596.17,104.30
6621.02,100.64
6645.86,97.78
6670.70,95.05
6695.54,92.33
6720.39,89.52
6745.23,86.02
6770.07,81.69
6794.91,77.55
6819.76,74.65
6844.60,73.62
6869.44,72.60
6894.28,70.15
6919.13,66.71
6943.97,62.80
6968.81,59.51
6993.65,57.69
7018.50,57.05
7043.34,56.29
7068.18,54.82
7093.02,53.29
7117.87,52.10
7142.71,50.91
7167.55,49.66
7192.39,49.13
7217.24,48.60
7242.08,47.65
7266.92,46.79
7291.77,46.04
7316.61,45.06
7341.45,43.90
7366.29,42.76
7391.14,41.09
7415.98,39.09
7440.82,38.15
7465.66,38.65
7490.51,39.53
7515.35,39.87
7540.19,39.68
7565.03,39.44
7589.88,39.20
7614.72,38.08
7639.56,36.25
7664.40,34.76
7689.25,34.20
7714.09,33.92
7738.93,33.70
7763.77,33.97
7788.62,34.59
7813.46,34.97
7838.30,34.67
7863.14,33.80
7887.99,32.80
7912.83,32.41
7937.67,32.03
7962.51,31.78
7987.36,32.25
8012.20,33.06
8037.04,33.22
8061.89,31.92
8086.73,29.61
8111.57,27.86
8136.41,27.63
8161.26,28.03
8186.10,27.72
8210.94,26.68
8235.78,25.79
8260.63,25.68
8285.47,25.58
8310.31,26.32
8335.15,27.85
8360.00,29.32
8384.84,30.29
8409.68,30.96
8434.52,31.04
8459.37,30.16
8484.21,28.51
8509.05,26.27
8533.89,23.99
8558.74,22.68
8583.58,22.65
8608.42,23.01
8633.26,22.97
8658.11,22.93
8682.95,22.66
8707.79,22.73
8732.63,23.10
8757.48,23.56
8782.32,23.68
8807.16,23.32
8832.00,22.99
8856.85,22.70
8881.69,21.78
8906.53,20.61
8931.37,20.43
8956.22,21.54
8981.06,22.23
9005.90,22.92
9030.75,23.62
9055.59,23.67
9080.43,23.54
9105.27,23.47
9130.12,23.23
9154.96,22.64
9179.80,21.97
9204.64,21.84
9229.49,22.50
9254.33,23.27
9279.17,23.44
9304.01,23.48
9328.86,23.72
9353.70,23.95
9378.54,24.08
9403.38,23.28
9428.23,22.27
9453.07,21.38
9477.91,20.22
9502.75,19.11
9527.60,18.91
9552.44,19.74
9577.28,20.64
9602.12,20.64
9626.97,19.99
9651.81,19.52
9676.65,19.10
9701.50,18.65
9726.34,18.21
9751.18,17.63
9776.02,18.43
9800.87,19.88
9825.71,20.46
9850.55,19.93
9875.39,19.26
9900.24,19.40
9925.08,20.58
9949.92,22.10
9974.76,22.65
9999.61,21.60
10024.45,19.79
10049.29,19.02
10074.13,18.26
10098.98,17.01
10123.82,15.87
10148.66,15.18
10173.50,15.15
10198.35,15.71
10223.19,16.57
10248.03,17.14
10272.87,17.26
10297.72,17.37
10322.56,17.56
10347.40,17.70
10372.25,18.00
10397.09,18.26
10421.93,18.53
10446.77,18.92
10471.62,18.78
10496.46,18.04
10521.30,16.95
10546.14,15.98
10570.99,15.94
10595.83,17.30
10620.67,19.31
10645.51,20.73
10670.36,21.12
10695.20,20.72
10720.04,20.06
10744.88,19.73
10769.73,19.72
10794.57,19.70
10819.41,19.83
10844.25,20.31
10869.10,20.70
10893.94,20.38
10918.78,20.02
10943.62,20.35
10968.47,20.64
10993.31,20.17
11018.15,19.32
11043.00,18.72
11067.84,18.49
11092.68,18.38
11117.52,18.47
11142.37,18.57
11167.21,19.21
11192.05,19.71
11216.89,19.58
11241.74,19.07
11266.58,18.44
11291.42,17.76
11316.26,17.08
11341.11,16.82
11365.95,17.35
11390.79,18.18
11415.63,18.32
11440.48,17.73
11465.32,17.52
11490.16,17.32
11515.00,17.87
11539.85,19.16
11564.69,20.02
11589.53,19.65
11614.37,18.87
11639.22,18.67
11664.06,18.56
11688.90,17.95
11713.74,17.48
11738.59,17.96
11763.43,19.21
11788.27,20.18
11813.12,20.01
11837.96,19.51
11862.80,19.01
11887.64,18.03
11912.49,17.25
11937.33,16.54
11962.17,16.06
11987.01,15.94
12011.86,16.15
12036.70,16.55
12061.54,17.00
12086.38,17.86
12111.23,19.16
12136.07,19.80
12160.91,19.11
12185.75,18.59
12210.60,18.06
12235.44,17.50
12260.28,17.03
12285.12,16.41
12309.97,15.99
12334.81,15.78
12359.65,15.66
12384.49,15.86
12409.34,16.53
12434.18,17.61
12459.02,18.75
12483.86,18.89
12508.71,17.71
12533.55,17.22
12558.39,16.74
12583.24,17.24
12608.08,18.49
12632.92,19.07
12657.76,18.29
12682.61,16.46
12707.45,14.54
12732.29,13.44
12757.13,13.54
12781.98,14.41
12806.82,15.01
12831.66,14.43
12856.50,13.04
12881.35,12.04
12906.19,11.97
12931.03,11.90
12955.87,12.12
12980.72,12.27
13005.56,12.43
13030.40,13.02
13055.24,14.35
13080.09,15.63
13104.93,15.71
13129.77,14.82
13154.61,14.15
13179.46,14.23
13204.30,14.81
13229.14,15.40
13253.98,15.49
13278.83,15.57
13303.67,15.40
13328.51,15.51
13353.35,15.98
13378.20,15.87
13403.04,14.64
13427.88,13.00
13452.73,11.86
13477.57,11.45
13502.41,11.50
13527.25,11.15
13552.10,9.87
13576.94,8.95
13601.78,9.40
13626.62,9.84
13651.47,11.61
13676.31,12.80
13701.15,13.44
13725.99,13.64
13750.84,13.13
13775.68,12.28
13800.52,11.97
13825.36,12.47
13850.21,13.08
13875.05,13.08
13899.89,12.75
13924.73,12.71
13949.58,13.11
13974.42,13.46
13999.26,13.80
14024.10,14.07
14048.95,13.21
14073.79,11.68
14098.63,10.46
14123.47,9.86
14148.32,9.86
14173.16,10.26
14198.00,10.32
14222.85,9.77
14247.69,9.40
14272.53,9.55
14297.37,9.51
14322.22,9.30
14347.06,9.09
14371.90,9.16
14396.74,9.82
14421.59,9.95
14446.43,9.23
14471.27,8.59
14496.11,8.45
14520.96,8.46
14545.80,8.84
14570.64,10.21
14595.48,12.35
14620.33,14.09
14645.17,14.59
14670.01,14.40
14694.85,14.21
14719.70,14.01
14744.54,14.48
14769.38,15.29
14794.22,16.17
14819.07,16.90
14843.91,17.23
14868.75,17.92
14893.59,19.97
14918.44,22.37
14943.28,23.73
14968.12,24.87
14992.97,27.06
15017.81,29.48
15042.65,29.94
15067.49,30.41
15092.34,29.47
15117.18,27.77
15142.02,26.09
15166.86,24.22
15191.71,22.17
15216.55,20.50
15241.39,18.94
15266.23,17.00
15291.08,15.05
15315.92,13.44
15340.76,12.52
15365.60,12.77
15390.45,13.03
15415.29,13.28
15440.13,12.33
15464.97,10.11
15489.82,8.58
15514.66,8.80
15539.50,10.21
15564.34,11.68
15589.19,12.08
15614.03,10.88
15638.87,8.91
15663.71,7.63
15688.56,7.62
15713.40,8.35
15738.24,8.58
15763.08,8.80
15787.93,8.34
15812.77,7.19
15837.61,6.09
15862.46,5.74
15887.30,6.43
15912.14,7.46
15936.98,7.85
15961.83,7.42
15986.67,6.81
16011.51,6.49
16036.35,6.14
16061.20,5.48
16086.04,5.15
16110.88,5.42
16135.72,5.68
16160.57,6.57
16185.41,7.03
16210.25,7.07
16235.09,7.39
16259.94,8.01
16284.78,8.14
16309.62,7.51
16334.46,6.97
16359.31,7.08
16384.15,7.47
16408.99,7.69
16433.84,7.83
16458.68,7.87
16483.52,7.92
16508.36,7.59
16533.21,7.06
16558.05,7.23
16582.89,7.92
16607.73,7.91
16632.58,7.25
16657.42,7.14
16682.26,7.66
16707.10,7.91
16731.95,7.64
16756.79,7.30
16781.63,7.22
16806.47,7.21
16831.32,7.21
16856.16,6.83
16881.00,6.46
16905.84,6.63
16930.69,6.75
16955.53,6.24
16980.37,5.65
17005.21,5.30
17030.06,4.68
17054.90,3.85
17079.74,3.72
17104.58,4.62
17129.43,5.93
17154.27,6.83
17179.11,6.83
17203.96,6.83
17228.80,6.51
17253.64,7.02
17278.48,8.20
17303.33,8.55
17328.17,7.48
17353.01,5.76
17377.85,4.62
17402.70,4.65
17427.54,5.42
17452.38,6.24
17477.22,6.74
17502.07,6.60
17526.91,6.33
17551.75,6.06
17576.59,5.59
17601.44,4.95
17626.28,4.09
17651.12,3.92
17675.96,4.73
17700.81,5.31
17725.65,4.37
17750.49,2.40
17775.33,1.25
17800.18,1.72
17825.02,2.84
17849.86,3.65
17874.71,3.83
17899.55,4.01
17924.39,3.89
17949.23,3.62
17974.07,4.05
17998.92,4.95
18023.76,4.91
18048.60,3.30
18073.45,1.38
18098.29,0.74
18123.13,1.42
18147.97,2.28
18172.82,2.70
18197.66,2.92
18222.50,3.08
18247.34,3.01
18272.19,2.94
18297.03,2.55
18321.87,2.57
18346.71,3.11
18371.56,3.32
18396.40,2.88
18421.24,2.50
18446.08,2.46
18470.93,2.36
18495.77,2.11
18520.61,1.74
18545.46,1.19
