Size (bp),Intensity
0.58,1363.54
1.00,1112.11
2.00,728.13
2.42,395.71
2.84,195.00
3.26,103.82
3.68,70.34
4.10,59.50
4.52,58.06
4.94,56.62
5.36,56.44
5.79,56.04
6.21,53.93
6.63,50.16
7.05,44.72
7.47,37.72
7.89,30.46
8.31,24.45
8.73,19.76
9.15,15.79
9.57,12.54
9.99,10.42
10.41,9.51
10.83,9.70
11.25,10.67
11.67,11.18
12.09,11.69
12.52,11.69
12.94,9.80
13.36,6.95
13.78,5.52
14.20,6.29
14.62,7.60
15.04,8.55
15.46,10.51
15.88,15.23
16.30,22.71
16.72,29.85
17.14,31.67
17.56,26.13
17.98,16.99
18.40,9.83
18.82,6.30
19.24,5.31
19.67,4.32
20.09,2.55
20.51,1.68
20.93,1.94
21.35,2.27
21.77,1.81
22.19,0.72
22.61,-0.10
23.03,-0.33
23.45,-0.65
23.87,-1.38
24.29,-1.78
24.71,-1.23
25.13,-0.13
25.55,0.59
25.97,0.65
26.39,0.55
26.82,0.46
27.24,0.28
27.66,-0.04
28.08,-0.42
28.50,-0.65
28.92,-0.69
29.34,-0.52
29.76,-0.17
30.18,0.03
30.60,-0.20
31.02,-0.88
31.44,-1.72
31.86,-1.98
32.28,-1.32
32.70,-0.45
33.12,-0.29
33.55,-0.71
33.97,-0.74
34.39,-0.78
34.81,-0.21
35.23,0.42
35.65,0.69
36.07,0.40
36.49,-0.55
36.91,-1.37
37.33,-1.01
37.75,0.17
38.17,0.85
38.59,0.92
39.01,1.28
39.43,1.71
39.85,1.03
40.27,-0.65
40.70,-1.90
41.12,-1.79
41.54,-1.69
41.96,-0.17
42.38,1.62
42.80,2.59
43.22,2.69
43.64,2.53
44.06,2.47
44.48,2.85
44.90,3.78
45.32,4.30
45.74,3.34
46.16,1.50
46.58,0.55
47.00,1.11
47.42,2.08
47.85,2.73
48.27,3.28
48.69,3.40
49.11,3.52
49.53,3.15
49.95,2.95
50.37,3.71
50.79,5.03
51.21,5.85
51.63,5.29
52.05,3.40
52.47,1.55
52.89,1.26
53.31,2.64
53.73,4.75
54.15,6.75
54.58,7.92
55.00,8.05
55.42,7.68
55.84,7.38
56.26,7.29
56.68,7.20
57.10,7.15
57.52,7.46
57.94,8.21
58.36,9.08
58.78,9.29
59.20,8.50
59.62,7.60
60.04,8.09
60.46,10.29
60.88,12.97
61.30,15.13
61.73,16.69
62.15,17.15
62.57,15.93
62.99,13.56
63.41,12.40
63.83,11.23
64.25,9.68
64.67,8.93
65.09,8.51
65.51,7.87
65.93,6.40
66.35,4.00
66.77,1.74
67.19,1.07
67.61,2.39
68.03,4.36
68.45,5.13
68.88,4.48
69.30,3.69
69.72,3.56
70.14,3.95
70.56,4.40
70.98,4.49
71.40,4.59
71.82,4.66
72.24,4.35
72.66,3.33
73.08,2.19
73.50,1.65
73.92,1.97
74.34,3.36
74.76,5.12
75.18,5.80
75.61,5.05
76.03,3.67
76.45,2.52
76.87,2.31
77.29,3.11
77.71,4.01
78.13,4.07
78.55,4.14
78.97,3.83
79.39,3.88
79.81,4.50
80.23,5.30
80.65,5.81
81.07,6.17
81.49,6.77
81.91,6.74
82.33,5.22
82.76,3.19
83.18,1.90
83.60,1.53
84.02,2.43
84.44,4.48
84.86,6.10
85.28,6.34
85.70,6.23
86.12,6.12
86.54,6.22
86.96,6.43
87.38,6.42
87.80,5.79
88.22,4.58
88.64,3.89
89.06,4.45
89.48,5.30
89.91,5.18
90.33,4.23
90.75,3.55
91.17,3.46
91.59,3.53
92.01,3.72
92.43,4.26
92.85,4.56
93.27,4.86
93.69,4.96
94.11,4.71
94.53,5.13
94.95,6.37
95.37,7.22
95.79,7.13
96.21,6.82
96.64,6.34
97.06,5.10
97.48,3.74
97.90,3.63
98.32,4.76
98.74,6.03
99.16,6.72
99.58,6.91
100.00,7.04
101.00,7.19
101.52,7.33
102.04,7.34
102.56,6.78
103.08,6.60
103.61,7.45
104.13,7.81
104.65,5.99
105.17,3.15
105.69,2.17
106.21,3.87
106.73,6.28
107.25,7.55
107.77,7.56
108.29,6.83
108.82,5.71
109.34,4.79
109.86,4.88
110.38,4.97
110.90,6.31
111.42,7.47
111.94,7.25
112.46,5.99
112.98,4.72
113.51,4.08
114.03,4.29
114.55,5.00
115.07,5.77
115.59,6.75
116.11,7.91
116.63,8.57
117.15,8.44
117.67,7.90
118.19,7.42
118.72,7.60
119.24,8.07
119.76,8.54
120.28,9.31
120.80,9.35
121.32,9.29
121.84,9.50
122.36,9.24
122.88,8.32
123.41,7.99
123.93,8.83
124.45,9.79
124.97,9.92
125.49,9.51
126.01,9.06
126.53,8.64
127.05,8.53
127.57,9.17
128.09,9.67
128.62,10.16
129.14,10.70
129.66,10.96
130.18,11.54
130.70,12.37
131.22,12.88
131.74,13.01
132.26,13.27
132.78,13.54
133.31,13.48
133.83,13.56
134.35,14.04
134.87,14.36
135.39,14.36
135.91,14.32
136.43,14.11
136.95,13.65
137.47,13.52
137.99,13.40
138.52,13.64
139.04,13.94
139.56,14.07
140.08,14.55
140.60,15.54
141.12,16.15
141.64,15.80
142.16,15.18
142.68,15.13
143.21,15.58
143.73,16.22
144.25,16.75
144.77,16.96
145.29,17.08
145.81,17.52
146.33,18.29
146.85,18.90
147.37,19.52
147.89,21.15
148.42,22.04
148.94,21.72
149.46,21.54
149.98,22.19
150.50,22.88
151.02,23.46
151.54,24.34
152.06,25.33
152.58,26.09
153.11,26.56
153.63,27.10
154.15,28.04
154.67,28.82
155.19,28.82
155.71,28.73
156.23,28.64
156.75,29.05
157.27,30.34
157.79,32.19
158.32,33.85
158.84,35.53
159.36,38.25
159.88,41.74
160.40,44.40
160.92,45.46
161.44,45.46
161.96,44.94
162.48,43.80
163.01,42.36
163.53,41.25
164.05,40.38
164.57,39.51
165.09,39.43
165.61,39.35
166.13,40.34
166.65,41.91
167.17,43.51
167.69,45.00
168.22,46.11
168.74,46.46
169.26,46.09
169.78,45.66
170.30,45.82
170.82,46.86
171.34,48.77
171.86,51.17
172.38,53.34
172.91,55.05
173.43,57.00
173.95,58.43
174.47,59.86
174.99,63.21
175.51,66.15
176.03,68.44
176.55,70.45
177.07,73.11
177.59,77.57
178.12,83.78
178.64,90.49
179.16,96.91
179.68,103.11
180.20,109.24
180.72,115.51
181.24,122.23
181.76,129.72
182.28,138.00
182.81,146.63
183.33,150.99
183.85,155.35
184.37,164.50
184.89,174.60
185.41,186.31
185.93,200.48
186.45,217.04
186.97,234.12
187.49,249.97
188.02,264.76
188.54,279.18
189.06,292.38
189.58,302.88
190.10,311.31
190.62,320.10
191.14,330.43
191.66,341.47
192.18,346.82
192.71,352.16
193.23,362.09
193.75,371.36
194.27,380.05
194.79,388.06
195.31,396.19
195.83,405.56
196.35,415.89
196.87,426.55
197.39,437.93
197.92,450.78
198.44,464.91
198.96,479.22
199.48,493.75
200.00,510.27
201.00,529.26
201.59,549.33
202.17,559.77
202.76,570.21
203.34,593.09
203.93,618.12
204.51,644.18
205.10,670.69
205.69,697.87
206.27,726.11
206.86,755.47
207.44,785.28
208.03,814.06
208.62,840.94
209.20,866.73
209.79,892.46
210.37,917.73
210.96,941.78
211.54,964.66
212.13,975.66
212.72,986.65
213.30,1007.70
213.89,1027.86
214.47,1047.62
215.06,1067.88
215.64,1089.85
216.23,1114.34
216.82,1140.99
217.40,1168.68
217.99,1196.67
218.57,1224.82
219.16,1252.75
219.75,1280.45
220.33,1309.40
220.92,1340.43
221.50,1372.38
222.09,1404.09
222.67,1419.64
223.26,1435.20
223.85,1464.43
224.43,1489.67
225.02,1510.45
225.60,1528.40
226.19,1544.89
226.78,1560.33
227.36,1575.23
227.95,1590.23
228.53,1605.69
229.12,1621.71
229.70,1638.66
230.29,1657.51
230.88,1679.20
231.46,1703.74
232.05,1730.60
232.63,1745.16
233.22,1759.72
233.80,1791.00
234.39,1823.13
234.98,1854.20
235.56,1882.99
236.15,1908.65
236.73,1931.27
237.32,1952.32
237.91,1972.34
238.49,1989.82
239.08,2004.04
239.66,2016.70
240.25,2030.32
240.83,2047.82
241.42,2072.38
242.01,2104.74
242.59,2141.93
243.18,2160.37
243.76,2178.81
244.35,2210.41
244.93,2234.61
245.52,2253.18
246.11,2268.62
246.69,2280.89
247.28,2288.85
247.86,2292.46
248.45,2292.39
249.04,2290.30
249.62,2289.20
250.21,2290.71
250.79,2293.60
251.38,2296.47
251.96,2299.65
252.55,2303.04
253.14,2303.37
253.72,2303.70
254.31,2298.15
254.89,2285.97
255.48,2269.55
256.07,2252.12
256.65,2236.58
257.24,2225.27
257.82,2220.17
258.41,2221.61
258.99,2227.51
259.58,2234.78
260.17,2239.86
260.75,2238.90
261.34,2229.59
261.92,2212.54
262.51,2190.60
263.09,2166.02
263.68,2152.45
264.27,2138.88
264.85,2110.82
265.44,2086.56
266.02,2069.49
266.61,2059.39
267.20,2055.11
267.78,2055.88
268.37,2060.25
268.95,2065.77
269.54,2068.85
270.12,2066.31
270.71,2058.15
271.30,2046.33
271.88,2031.58
272.47,2013.42
273.05,1992.69
273.64,1972.65
274.22,1964.34
274.81,1956.04
275.40,1942.75
275.98,1931.04
276.57,1919.53
277.15,1908.61
277.74,1900.06
278.33,1894.48
278.91,1890.08
279.50,1883.65
280.08,1873.02
280.67,1858.38
281.25,1841.03
281.84,1822.60
282.43,1805.05
283.01,1789.22
283.60,1774.97
284.18,1768.98
284.77,1762.99
285.36,1753.61
285.94,1745.96
286.53,1740.00
287.11,1736.63
287.70,1735.85
288.28,1735.83
288.87,1733.36
289.46,1726.99
290.04,1717.91
290.63,1705.85
291.21,1689.07
291.80,1669.13
292.38,1650.66
292.97,1637.22
293.56,1629.66
294.14,1627.10
294.73,1627.13
295.31,1627.15
295.90,1626.24
296.49,1622.24
297.07,1616.06
297.66,1608.90
298.24,1601.03
298.83,1593.86
299.41,1589.23
300.00,1586.62
301.00,1584.43
301.70,1582.35
302.39,1580.00
303.09,1576.33
303.79,1572.34
304.49,1570.50
305.18,1571.90
305.88,1573.69
306.58,1575.48
307.27,1579.21
307.97,1581.81
308.67,1583.47
309.37,1584.30
310.06,1583.53
310.76,1581.24
311.46,1579.08
312.15,1578.47
312.85,1579.82
313.55,1582.95
314.25,1586.53
314.94,1588.18
315.64,1585.07
316.34,1574.58
317.04,1555.60
317.73,1529.29
318.43,1513.51
319.13,1497.74
319.82,1463.02
320.52,1428.15
321.22,1396.75
321.92,1370.46
322.61,1347.77
323.31,1326.11
324.01,1304.39
324.70,1283.11
325.40,1263.15
326.10,1244.62
326.80,1226.96
327.49,1210.15
328.19,1195.36
328.89,1182.69
329.58,1170.28
330.28,1163.47
330.98,1156.66
331.68,1141.99
332.37,1127.98
333.07,1117.39
333.77,1111.07
334.46,1106.81
335.16,1102.57
335.86,1097.89
336.56,1092.81
337.25,1088.10
337.95,1085.03
338.65,1083.97
339.35,1084.43
340.04,1086.00
340.74,1088.38
341.44,1090.98
342.13,1092.52
342.83,1092.03
343.53,1091.54
344.23,1088.26
344.92,1084.19
345.62,1078.99
346.32,1070.62
347.01,1058.86
347.71,1045.92
348.41,1033.51
349.11,1021.35
349.80,1008.81
350.50,997.27
351.20,988.90
351.89,984.18
352.59,982.71
353.29,984.09
353.99,986.80
354.68,987.83
355.38,988.86
356.08,989.10
356.77,985.91
357.47,978.05
358.17,967.14
358.87,956.03
359.56,946.21
360.26,937.45
360.96,928.07
361.65,916.92
362.35,905.87
363.05,897.38
363.75,891.12
364.44,885.58
365.14,880.01
365.84,873.94
366.54,867.49
367.23,864.41
367.93,861.34
368.63,854.95
369.32,847.49
370.02,839.96
370.72,833.31
371.42,826.40
372.11,818.56
372.81,811.24
373.51,805.52
374.20,800.76
374.90,795.72
375.60,789.68
376.30,783.05
376.99,777.38
377.69,774.11
378.39,772.96
379.08,772.80
379.78,772.65
380.48,772.53
381.18,771.77
381.87,768.93
382.57,763.84
383.27,757.66
383.96,751.75
384.66,747.45
385.36,744.74
386.06,741.78
386.75,737.97
387.45,734.78
388.15,732.23
388.85,728.04
389.54,720.87
390.24,711.95
390.94,702.76
391.63,698.10
392.33,693.45
393.03,684.28
393.73,676.65
394.42,671.56
395.12,668.30
395.82,665.98
396.51,665.27
397.21,667.05
397.91,670.82
398.61,675.24
399.30,678.95
400.00,681.06
401.00,681.49
401.72,680.73
402.45,679.53
403.17,678.27
403.89,677.44
404.61,676.61
405.34,674.10
406.06,670.76
406.78,667.44
407.50,665.50
408.23,665.17
408.95,664.83
409.67,662.60
410.39,657.21
411.12,647.75
411.84,633.98
412.56,617.15
413.28,599.63
414.01,583.34
414.73,569.31
415.45,558.33
416.18,550.45
416.90,547.06
417.62,543.67
418.34,535.32
419.07,525.06
419.79,514.66
420.51,505.04
421.23,495.67
421.96,486.25
422.68,477.78
423.40,471.72
424.12,468.01
424.85,464.87
425.57,461.63
426.29,459.40
427.01,458.64
427.74,458.14
428.46,456.28
429.18,452.34
429.91,449.92
430.63,447.49
431.35,443.36
432.07,439.97
432.80,436.60
433.52,433.33
434.24,430.53
434.96,428.51
435.69,427.33
436.41,426.49
437.13,425.79
437.85,425.74
438.58,425.90
439.30,424.68
440.02,421.49
440.74,417.49
441.47,414.05
442.19,412.74
442.91,411.43
443.64,409.14
444.36,406.14
445.08,401.44
445.80,395.45
446.53,389.89
447.25,386.23
447.97,384.86
448.69,385.33
449.42,386.85
450.14,389.08
450.86,391.88
451.58,393.93
452.31,393.17
453.03,389.34
453.75,384.29
454.47,379.91
455.20,378.36
455.92,376.81
456.64,374.62
457.36,372.58
458.09,370.12
458.81,367.25
459.53,364.19
460.26,360.90
460.98,357.67
461.70,355.62
462.42,355.19
463.15,355.43
463.87,355.59
464.59,355.28
465.31,353.16
466.04,348.06
466.76,340.83
467.48,337.28
468.20,333.73
468.93,328.37
469.65,324.64
470.37,321.51
471.09,318.42
471.82,315.30
472.54,312.31
473.26,310.00
473.99,308.35
474.71,306.42
475.43,304.27
476.15,302.85
476.88,301.84
477.60,300.24
478.32,297.87
479.04,294.72
479.77,290.68
480.49,288.41
481.21,286.14
481.93,281.42
482.66,276.56
483.38,272.14
484.10,268.93
484.82,266.42
485.55,263.44
486.27,259.58
486.99,255.40
487.72,251.96
488.44,249.91
489.16,248.92
489.88,248.66
490.61,249.63
491.33,251.98
492.05,254.51
492.77,254.89
493.50,255.28
494.22,253.36
494.94,249.65
495.66,245.34
496.39,240.39
497.11,234.49
497.83,228.61
498.55,224.22
499.28,221.76
500.00,220.47
501.00,219.19
502.01,217.40
503.02,215.67
504.03,214.77
505.04,214.62
506.05,214.25
507.06,212.73
508.07,211.54
509.08,210.36
510.09,208.43
511.10,207.62
512.11,207.56
513.12,207.46
514.13,206.36
515.14,203.57
516.15,199.73
517.16,196.59
518.17,194.80
519.18,192.81
520.19,189.17
521.20,184.96
522.21,182.33
523.22,181.77
524.23,182.24
525.24,182.43
526.26,182.61
527.27,182.01
528.28,180.18
529.29,177.49
530.30,174.19
531.31,170.76
532.32,167.82
533.33,165.35
534.34,162.95
535.35,160.35
536.36,157.57
537.37,155.05
538.38,153.16
539.39,151.95
540.40,151.52
541.41,151.96
542.42,152.69
543.43,152.74
544.44,152.80
545.45,152.31
546.46,152.13
547.47,152.74
548.48,153.53
549.49,153.60
550.50,152.68
551.51,151.03
552.52,148.75
553.53,146.13
554.54,144.33
555.55,143.99
556.56,144.01
557.57,143.36
558.58,142.66
559.59,142.86
560.60,143.33
561.61,143.80
562.62,144.84
563.63,145.48
564.64,145.21
565.65,143.93
566.66,142.59
567.67,141.80
568.68,140.93
569.69,139.38
570.70,137.23
571.71,134.92
572.72,133.15
573.73,132.04
574.74,130.70
575.76,128.69
576.77,126.89
577.78,125.91
578.79,125.52
579.80,125.13
580.81,123.81
581.82,122.21
582.83,121.04
583.84,120.16
584.85,118.77
585.86,116.98
586.87,115.77
587.88,115.71
588.89,116.44
589.90,117.02
590.91,116.87
591.92,116.26
592.93,115.52
593.94,114.26
594.95,112.55
595.96,111.52
596.97,111.67
597.98,111.81
598.99,112.25
600.00,111.29
601.00,109.31
602.18,108.25
603.36,108.65
604.54,109.20
605.71,109.24
606.89,109.06
608.07,108.64
609.25,108.12
610.43,108.19
611.61,108.96
612.79,109.67
613.96,109.89
615.14,109.90
616.32,109.88
617.50,109.86
618.68,109.52
619.86,108.65
621.04,107.17
622.21,105.13
623.39,103.35
624.57,102.80
625.75,102.86
626.93,102.48
628.11,101.81
629.29,101.29
630.46,100.51
631.64,99.16
632.82,97.63
634.00,96.30
635.18,95.00
636.36,93.99
637.54,94.00
638.71,94.00
639.89,94.76
641.07,94.68
642.25,92.99
643.43,90.91
644.61,90.05
645.79,90.14
646.96,89.87
648.14,88.84
649.32,87.62
650.50,86.54
651.68,85.78
652.86,85.51
654.04,85.83
655.21,86.47
656.39,86.59
657.57,86.07
658.75,85.56
659.93,84.01
661.11,83.00
662.29,82.61
663.46,82.21
664.64,81.70
665.82,81.39
667.00,81.34
668.18,81.53
669.36,81.82
670.54,81.45
671.71,79.94
672.89,78.08
674.07,77.22
675.25,77.74
676.43,78.81
677.61,79.28
678.79,78.99
679.96,78.71
681.14,77.49
682.32,76.55
683.50,76.30
684.68,75.98
685.86,74.72
687.04,72.93
688.21,71.51
689.39,70.71
690.57,70.13
691.75,69.44
692.93,68.57
694.11,67.51
695.29,66.38
696.46,65.65
697.64,65.50
698.82,65.53
700.00,65.57
701.00,65.60
702.98,65.36
704.96,64.60
706.94,63.65
708.92,62.69
710.90,61.18
712.88,59.36
714.86,58.61
716.84,59.51
718.82,61.06
720.80,62.14
722.78,62.29
724.76,61.48
726.74,60.43
728.72,60.32
730.70,61.13
732.68,61.21
734.66,61.29
736.64,60.36
738.62,59.60
740.60,59.43
742.58,59.14
744.56,58.76
746.54,58.71
748.52,58.92
750.50,59.24
752.48,59.33
754.46,58.49
756.44,56.93
758.42,55.76
760.40,55.49
762.38,55.87
764.36,56.50
766.34,56.57
768.32,56.65
770.30,55.90
772.28,54.82
774.26,53.66
776.24,52.00
778.22,50.04
780.20,48.67
782.18,48.16
784.16,48.21
786.14,48.62
788.12,49.19
790.10,49.51
792.08,49.15
794.06,47.91
796.04,46.13
798.02,45.08
800.00,45.61
801.00,46.24
803.36,46.87
805.71,47.50
808.07,47.27
810.43,46.62
812.79,45.93
815.14,45.34
817.50,44.81
819.86,44.33
822.21,44.12
824.57,44.24
826.93,44.07
829.29,42.90
831.64,41.16
834.00,40.32
836.36,40.94
838.71,41.71
841.07,41.61
843.43,41.51
845.79,40.70
848.14,39.88
850.50,39.28
852.86,39.28
855.21,39.91
857.57,40.48
859.93,40.25
862.29,38.84
864.64,36.83
867.00,35.49
869.36,34.93
871.71,34.45
874.07,34.12
876.43,33.90
878.79,33.24
881.14,32.56
883.50,32.78
885.86,33.00
888.21,34.29
890.57,34.95
892.93,34.49
895.29,33.77
897.64,33.31
900.00,32.53
901.00,31.24
904.67,29.98
908.33,28.96
912.00,28.29
915.67,28.56
919.33,29.48
923.00,29.53
926.67,28.27
930.33,26.95
934.00,26.71
937.67,26.47
941.33,26.86
945.00,28.04
948.67,29.09
952.33,28.57
956.00,26.54
959.67,24.64
963.33,23.84
967.00,23.76
970.67,24.03
974.33,24.77
978.00,25.73
981.67,25.88
985.33,24.62
989.00,22.99
992.67,22.32
996.33,22.22
1000.00,21.94
1001.00,21.66
1006.10,21.12
1011.21,21.30
1016.31,21.54
1021.41,21.28
1026.51,21.08
1031.62,21.21
1036.72,21.06
1041.82,20.27
1046.92,19.18
1052.03,18.26
1057.13,17.68
1062.23,17.46
1067.33,17.77
1072.44,18.47
1077.54,19.00
1082.64,18.66
1087.74,18.09
1092.85,17.52
1097.95,16.48
1103.05,16.21
1108.15,16.57
1113.26,16.89
1118.36,16.40
1123.46,15.17
1128.56,14.02
1133.67,13.40
1138.77,13.45
1143.87,14.05
1148.97,14.35
1154.08,13.80
1159.18,13.11
1164.28,13.28
1169.38,14.11
1174.49,14.39
1179.59,14.66
1184.69,14.26
1189.79,12.86
1194.90,10.96
1200.00,9.19
1201.00,8.11
1210.06,8.26
1219.12,9.06
1228.18,9.24
1237.24,8.76
1246.30,8.58
1255.36,9.30
1264.42,10.84
1273.48,12.00
1282.55,11.49
1291.61,9.84
1300.67,8.65
1309.73,8.50
1318.79,8.35
1327.85,8.39
1336.91,8.55
1345.97,9.03
1355.03,9.47
1364.09,9.24
1373.15,8.62
1382.21,8.68
1391.27,9.56
1400.33,9.97
1409.39,9.05
1418.45,7.90
1427.52,7.94
1436.58,8.79
1445.64,9.14
1454.70,8.57
1463.76,8.05
1472.82,7.53
1481.88,6.91
1490.94,7.65
1500.00,9.29
1501.00,10.27
1510.24,10.10
1519.48,9.42
1528.72,8.77
1537.96,8.68
1547.20,9.27
1556.44,9.88
1565.69,9.84
1574.93,8.83
1584.17,7.30
1593.41,6.47
1602.65,6.85
1611.89,7.54
1621.13,7.54
1630.37,7.55
1639.61,7.04
1648.85,6.85
1658.09,7.41
1667.33,8.07
1676.57,7.67
1685.81,6.19
1695.06,5.13
1704.30,5.34
1713.54,6.19
1722.78,7.20
1732.02,8.17
1741.26,8.51
1750.50,8.00
1759.74,7.08
1768.98,6.30
1778.22,6.36
1787.46,6.42
1796.70,7.60
1805.94,8.70
1815.19,8.67
1824.43,7.99
1833.67,7.67
1842.91,7.67
1852.15,7.41
1861.39,7.08
1870.63,7.28
1879.87,7.92
1889.11,8.25
1898.35,8.11
1907.59,7.98
1916.83,7.97
1926.07,7.48
1935.31,6.00
1944.56,5.10
1953.80,4.21
1963.04,3.35
1972.28,3.70
1981.52,4.58
1990.76,5.43
2000.00,6.09
2001.00,6.58
2018.22,6.86
2035.45,6.80
2052.67,6.41
2069.90,6.00
2087.12,6.00
2104.34,6.40
2121.57,6.77
2138.79,7.01
2156.02,7.18
2173.24,7.20
2190.47,7.22
2207.69,7.18
2224.91,7.40
2242.14,8.27
2259.36,9.52
2276.59,10.25
2293.81,10.05
2311.03,9.54
2328.26,9.20
2345.48,8.82
2362.71,8.26
2379.93,7.77
2397.16,7.34
2414.38,7.11
2431.60,7.52
2448.83,8.31
2466.05,8.89
2483.28,9.08
2500.50,9.27
2517.72,9.53
2534.95,9.49
2552.17,9.02
2569.40,8.23
2586.62,7.24
2603.84,6.12
2621.07,5.25
2638.29,4.96
2655.52,4.98
2672.74,5.17
2689.97,5.90
2707.19,6.97
2724.41,7.53
2741.64,7.26
2758.86,6.56
2776.09,6.35
2793.31,6.15
2810.53,6.39
2827.76,6.74
2844.98,6.40
2862.21,5.45
2879.43,4.67
2896.66,4.68
2913.88,5.12
2931.10,5.04
2948.33,4.18
2965.55,3.11
2982.78,2.21
3000.00,1.59
3001.00,1.31
3025.99,1.51
3050.98,2.08
3075.98,2.46
3100.97,2.55
3125.96,2.64
3150.95,3.56
3175.94,5.19
3200.93,6.00
3225.93,5.72
3250.92,5.95
3275.91,7.15
3300.90,8.10
3325.89,8.10
3350.88,7.72
3375.87,7.49
3400.87,7.68
3425.86,8.33
3450.85,8.82
3475.84,8.62
3500.83,8.02
3525.82,7.29
3550.82,6.89
3575.81,6.50
3600.80,5.90
3625.79,5.37
3650.78,4.70
3675.77,4.32
3700.77,4.37
3725.76,4.36
3750.75,4.46
3775.74,5.48
3800.73,7.18
3825.73,8.14
3850.72,7.63
3875.71,6.29
3900.70,5.03
3925.69,4.08
3950.68,3.23
3975.68,2.91
4000.67,2.59
4025.66,2.57
4050.65,2.90
4075.64,3.02
4100.63,3.05
4125.62,3.42
4150.62,3.95
4175.61,4.37
4200.60,4.47
4225.59,4.05
4250.58,3.46
4275.58,3.37
4300.57,3.72
4325.56,4.12
4350.55,4.50
4375.54,4.58
4400.53,4.23
4425.52,4.09
4450.52,3.96
4475.51,3.88
4500.50,3.70
4525.49,3.58
4550.48,3.59
4575.48,3.45
4600.47,3.37
4625.46,3.53
4650.45,4.00
4675.44,5.15
4700.43,6.53
4725.42,6.94
4750.42,6.43
4775.41,5.91
4800.40,5.40
4825.39,4.65
4850.38,4.28
4875.37,3.91
4900.37,3.27
4925.36,2.62
4950.35,2.00
4975.34,1.73
5000.33,2.26
5025.33,3.57
5050.32,4.56
5075.31,4.34
5100.30,3.49
5125.29,3.04
5150.28,3.13
5175.27,3.13
5200.27,2.80
5225.26,2.55
5250.25,2.62
5275.24,2.56
5300.23,2.38
5325.23,2.19
5350.22,1.89
5375.21,1.94
5400.20,2.35
5425.19,2.95
5450.18,3.35
5475.17,3.09
5500.17,2.44
5525.16,2.60
5550.15,3.87
5575.14,4.47
5600.13,3.10
5625.12,1.25
5650.12,1.52
5675.11,5.70
5700.10,16.17
5725.09,28.28
5750.08,40.40
5775.08,95.29
5800.07,205.94
5825.06,394.77
5850.05,666.23
5875.04,997.96
5900.03,1343.85
5925.02,1645.00
5950.02,1843.08
5975.01,1893.93
6000.00,1781.53
6024.79,1529.73
6049.64,1198.62
6074.48,859.56
6099.32,566.80
6124.16,346.01
6149.01,198.58
6173.85,154.82
6198.69,111.06
6223.53,64.23
6248.38,40.51
6273.22,28.15
6298.06,21.47
6322.90,17.82
6347.75,15.20
6372.59,12.52
6397.43,10.07
6422.27,8.37
6447.12,7.49
6471.96,7.28
6496.80,7.08
6521.65,6.21
6546.49,5.51
6571.33,6.63
6596.17,8.06
6621.02,9.49
6645.86,12.50
6670.70,14.36
6695.54,14.64
6720.39,13.89
6745.23,13.52
6770.07,14.12
6794.91,14.94
6819.76,14.96
6844.60,13.62
6869.44,11.16
6894.28,8.43
6919.13,6.03
6943.97,4.18
6968.81,3.12
6993.65,2.88
7018.50,3.12
7043.34,3.26
7068.18,3.40
7093.02,3.36
7117.87,2.92
7142.71,2.11
7167.55,1.11
7192.39,0.62
7217.24,1.11
7242.08,2.02
7266.92,2.73
7291.77,3.39
7316.61,3.76
7341.45,2.81
7366.29,0.72
7391.14,-0.83
7415.98,-0.98
7440.82,-0.29
7465.66,0.17
7490.51,0.62
7515.35,1.41
7540.19,1.73
7565.03,1.48
7589.88,0.93
7614.72,0.42
7639.56,-0.05
7664.40,-0.82
7689.25,-1.66
7714.09,-1.47
7738.93,0.27
7763.77,2.42
7788.62,3.41
7813.46,3.07
7838.30,2.17
7863.14,1.01
7887.99,-0.57
7912.83,-1.42
7937.67,-2.28
7962.51,-3.43
7987.36,-3.78
8012.20,-3.78
8037.04,-3.77
8061.89,-3.89
8086.73,-3.98
8111.57,-3.44
8136.41,-2.30
8161.26,-1.59
8186.10,-1.80
8210.94,-2.29
8235.78,-2.60
8260.63,-2.70
8285.47,-2.31
8310.31,-1.29
8335.15,-0.81
8360.00,-0.33
8384.84,-0.10
8409.68,-0.52
8434.52,-1.04
8459.37,-1.26
8484.21,-1.28
8509.05,-1.48
8533.89,-1.49
8558.74,-0.53
8583.58,1.11
8608.42,2.01
8633.26,1.39
8658.11,0.13
8682.95,-0.42
8707.79,0.38
8732.63,2.17
8757.48,3.34
8782.32,2.88
8807.16,2.43
8832.00,0.23
8856.85,-0.89
8881.69,-0.04
8906.53,1.43
8931.37,1.94
8956.22,1.34
8981.06,0.40
9005.90,-0.59
9030.75,-1.61
9055.59,-2.08
9080.43,-1.48
9105.27,-0.16
9130.12,0.86
9154.96,0.90
9179.80,0.22
9204.64,-0.73
9229.49,-1.07
9254.33,-1.41
9279.17,-1.02
9304.01,0.10
9328.86,0.50
9353.70,-0.01
9378.54,-0.37
9403.38,-0.02
9428.23,0.78
9453.07,1.52
9477.91,1.64
9502.75,0.76
9527.60,-0.66
9552.44,-1.30
9577.28,-0.62
9602.12,0.28
9626.97,0.11
9651.81,-0.55
9676.65,-1.21
9701.50,-2.72
9726.34,-3.26
9751.18,-2.47
9776.02,-1.08
9800.87,0.08
9825.71,0.75
9850.55,0.74
9875.39,-0.07
9900.24,-1.11
9925.08,-1.59
9949.92,-1.52
9974.76,-1.48
9999.61,-1.65
10024.45,-1.79
10049.29,-1.87
10074.13,-1.95
10098.98,-1.79
10123.82,-1.64
10148.66,-0.78
10173.50,0.09
10198.35,0.23
10223.19,-0.14
10248.03,-0.08
10272.87,0.42
10297.72,0.37
10322.56,-0.55
10347.40,-1.54
10372.25,-1.87
10397.09,-1.30
10421.93,-0.23
10446.77,0.26
10471.62,-0.52
10496.46,-1.26
10521.30,-0.73
10546.14,-0.19
10570.99,1.71
10595.83,1.96
10620.67,0.50
10645.51,-0.95
10670.36,-1.77
10695.20,-2.42
10720.04,-2.90
10744.88,-2.75
10769.73,-2.00
10794.57,-1.23
10819.41,-0.63
10844.25,0.28
10869.10,1.21
10893.94,0.97
10918.78,0.02
10943.62,0.45
10968.47,1.45
10993.31,2.45
11018.15,3.85
11043.00,3.08
11067.84,0.89
11092.68,-0.87
11117.52,-1.63
11142.37,-2.12
11167.21,-2.38
11192.05,-1.64
11216.89,0.08
11241.74,2.12
11266.58,4.03
11291.42,5.34
11316.26,5.34
11341.11,4.13
11365.95,2.85
11390.79,2.58
11415.63,2.30
11440.48,2.24
11465.32,2.46
11490.16,2.86
11515.00,3.30
11539.85,4.15
11564.69,5.46
11589.53,6.04
11614.37,4.92
11639.22,2.93
11664.06,1.78
11688.90,1.92
11713.74,2.18
11738.59,1.78
11763.43,1.68
11788.27,2.54
11813.12,3.17
11837.96,2.82
11862.80,2.47
11887.64,1.10
11912.49,0.28
11937.33,0.60
11962.17,2.00
11987.01,3.78
12011.86,4.90
12036.70,4.73
12061.54,3.60
12086.38,2.21
12111.23,0.92
12136.07,-0.42
12160.91,-1.74
12185.75,-2.45
12210.60,-2.05
12235.44,-0.83
12260.28,-0.29
12285.12,0.25
12309.97,0.70
12334.81,1.03
12359.65,1.55
12384.49,1.78
12409.34,1.50
12434.18,0.93
12459.02,0.17
12483.86,-0.37
12508.71,-0.18
12533.55,0.50
12558.39,1.05
12583.24,1.42
12608.08,1.64
12632.92,1.35
12657.76,0.56
12682.61,0.03
12707.45,0.24
12732.29,0.45
12757.13,1.78
12781.98,3.05
12806.82,3.06
12831.66,2.16
12856.50,1.76
12881.35,2.07
12906.19,2.41
12931.03,2.65
12955.87,2.98
12980.72,3.24
13005.56,3.13
13030.40,2.58
13055.24,2.05
13080.09,2.48
13104.93,3.60
13129.77,3.66
13154.61,3.73
13179.46,2.37
13204.30,0.80
13229.14,-0.02
13253.98,0.12
13278.83,1.15
13303.67,2.48
13328.51,3.44
13353.35,3.48
13378.20,2.40
13403.04,0.89
13427.88,-0.10
13452.73,-0.33
13477.57,-0.04
13502.41,0.45
13527.25,0.69
13552.10,0.47
13576.94,0.43
13601.78,0.39
13626.62,1.03
13651.47,2.05
13676.31,2.65
13701.15,2.64
13725.99,2.49
13750.84,2.47
13775.68,2.12
13800.52,1.28
13825.36,0.78
13850.21,1.09
13875.05,1.51
13899.89,1.25
13924.73,0.13
13949.58,-1.13
13974.42,-1.62
13999.26,-1.55
14024.10,-1.60
14048.95,-1.64
14073.79,-1.65
14098.63,-0.99
14123.47,0.07
14148.32,0.88
14173.16,1.33
14198.00,1.43
14222.85,1.24
14247.69,0.98
14272.53,0.80
14297.37,0.84
14322.22,1.05
14347.06,1.13
14371.90,0.98
14396.74,0.58
14421.59,-0.02
14446.43,-0.10
14471.27,-0.17
14496.11,0.71
14520.96,1.73
14545.80,1.58
14570.64,0.68
14595.48,0.45
14620.33,1.19
14645.17,2.01
14670.01,2.05
14694.85,1.33
14719.70,0.79
14744.54,1.06
14769.38,1.80
14794.22,2.53
14819.07,2.91
14843.91,2.45
14868.75,1.22
14893.59,0.69
14918.44,0.16
14943.28,0.10
14968.12,1.41
14992.97,3.77
15017.81,5.73
15042.65,5.75
15067.49,4.24
15092.34,2.95
15117.18,2.38
15142.02,1.78
15166.86,1.50
15191.71,2.68
15216.55,4.92
15241.39,6.61
15266.23,6.66
15291.08,5.23
15315.92,4.46
15340.76,3.69
15365.60,3.35
15390.45,3.89
15415.29,3.88
15440.13,2.70
15464.97,1.22
15489.82,0.71
15514.66,1.22
15539.50,1.47
15564.34,0.76
15589.19,-0.06
15614.03,-0.03
15638.87,0.79
15663.71,1.89
15688.56,2.62
15713.40,2.18
15738.24,0.78
15763.08,0.25
15787.93,-0.29
15812.77,-0.31
15837.61,0.18
15862.46,0.57
15887.30,0.78
15912.14,0.71
15936.98,0.36
15961.83,0.08
15986.67,0.09
16011.51,0.28
16036.35,0.33
16061.20,-0.10
16086.04,-0.52
16110.88,-0.29
16135.72,0.25
16160.57,0.99
16185.41,1.54
16210.25,2.10
16235.09,2.81
16259.94,2.28
16284.78,0.74
16309.62,-0.84
16334.46,-1.35
16359.31,-0.69
16384.15,0.00
16408.99,0.27
16433.84,0.86
16458.68,1.74
16483.52,1.85
16508.36,0.81
16533.21,-0.60
16558.05,-1.08
16582.89,0.22
16607.73,2.40
16632.58,3.02
16657.42,3.65
16682.26,3.66
16707.10,3.10
16731.95,1.94
16756.79,0.43
16781.63,-0.04
16806.47,0.58
16831.32,0.30
16856.16,-1.27
16881.00,-2.05
16905.84,-0.90
16930.69,0.97
16955.53,1.99
16980.37,1.84
17005.21,1.47
17030.06,1.65
17054.90,1.64
17079.74,1.64
17104.58,0.70
17129.43,0.04
17154.27,0.95
17179.11,2.52
17203.96,3.21
17228.80,3.03
17253.64,2.55
17278.48,1.85
17303.33,1.11
17328.17,0.55
17353.01,-0.08
17377.85,-0.67
17402.70,-0.32
17427.54,0.95
17452.38,1.89
17477.22,1.74
17502.07,1.28
17526.91,0.81
17551.75,-0.17
17576.59,-0.44
17601.44,0.36
17626.28,1.63
17651.12,2.22
17675.96,1.86
17700.81,1.13
17725.65,0.33
17750.49,-0.26
17775.33,-0.32
17800.18,-0.12
17825.02,0.05
17849.86,0.47
17874.71,1.24
17899.55,2.01
17924.39,2.07
17949.23,2.14
17974.07,1.27
17998.92,0.12
18023.76,0.05
18048.60,1.19
18073.45,2.04
18098.29,1.61
18123.13,0.76
18147.97,0.44
18172.82,0.36
18197.66,0.17
18222.50,0.00
18247.34,0.00
18272.19,0.00
18297.03,0.00
18321.87,0.00
18346.71,0.00
18371.56,0.00
18396.40,0.00
18421.24,0.00
18446.08,0.00
18470.93,0.00
18495.77,0.00
18520.61,0.00
18545.46,0.00
