Size (bp),Intensity
0.58,2325.15
1.00,1989.14
2.00,1362.50
2.42,767.56
2.84,382.04
3.26,195.80
3.68,123.51
4.10,98.48
4.52,89.86
4.94,86.66
5.36,84.72
5.79,82.11
6.21,79.96
6.63,77.80
7.05,71.30
7.47,63.19
7.89,54.54
8.31,45.66
8.73,36.77
9.15,28.82
9.57,22.85
9.99,19.32
10.41,17.97
10.83,17.81
11.25,17.64
11.67,16.56
12.09,14.50
12.52,12.30
12.94,10.52
13.36,8.58
13.78,6.32
14.20,4.83
14.62,4.74
15.04,5.46
15.46,6.60
15.88,8.16
16.30,8.83
16.72,9.49
17.14,9.73
17.56,9.35
17.98,9.59
18.40,10.25
18.82,10.07
19.24,9.15
19.67,8.75
20.09,8.94
20.51,8.88
20.93,8.75
21.35,9.19
21.77,9.94
22.19,10.44
22.61,10.44
23.03,9.76
23.45,8.57
23.87,7.94
24.29,8.54
24.71,9.26
25.13,8.95
25.55,8.28
25.97,8.26
26.39,8.43
26.82,8.61
27.24,8.76
27.66,8.61
28.08,7.62
28.50,5.53
28.92,3.36
29.34,2.49
29.76,3.11
30.18,4.11
30.60,4.47
31.02,4.69
31.44,5.77
31.86,7.33
32.28,8.19
32.70,8.04
33.12,7.31
33.55,6.37
33.97,5.57
34.39,5.14
34.81,5.15
35.23,5.87
35.65,7.09
36.07,7.78
36.49,7.62
36.91,7.47
37.33,7.33
37.75,8.80
38.17,11.64
38.59,14.28
39.01,15.80
39.43,16.55
39.85,16.97
40.27,17.23
40.70,17.71
41.12,18.63
41.54,19.49
41.96,19.73
42.38,19.56
42.80,19.82
43.22,20.70
43.64,21.06
44.06,19.92
44.48,17.64
44.90,15.09
45.32,13.06
45.74,12.38
46.16,12.75
46.58,12.54
47.00,12.33
47.42,10.08
47.85,7.35
48.27,6.07
48.69,6.54
49.11,7.20
49.53,6.63
49.95,5.42
50.37,4.57
50.79,3.73
51.21,2.65
51.63,2.29
52.05,2.86
52.47,3.39
52.89,3.55
53.31,3.69
53.73,3.91
54.15,4.22
54.58,4.78
55.00,5.24
55.42,4.80
55.84,3.51
56.26,2.16
56.68,1.72
57.10,1.27
57.52,1.10
57.94,1.60
58.36,2.03
58.78,1.96
59.20,1.79
59.62,1.92
60.04,2.56
60.46,3.28
60.88,3.09
61.30,2.03
61.73,1.25
62.15,1.38
62.57,2.05
62.99,2.75
63.41,3.33
63.83,3.90
64.25,4.40
64.67,4.68
65.09,4.96
65.51,5.48
65.93,5.79
66.35,5.28
66.77,4.66
67.19,4.04
67.61,2.89
68.03,2.31
68.45,1.81
68.88,0.95
69.30,0.61
69.72,1.56
70.14,2.91
70.56,3.31
70.98,2.69
71.40,1.97
71.82,2.01
72.24,2.76
72.66,3.49
73.08,3.63
73.50,3.43
73.92,3.65
74.34,4.54
74.76,5.43
75.18,5.51
75.61,4.87
76.03,4.29
76.45,3.98
76.87,3.79
77.29,3.59
77.71,3.31
78.13,3.55
78.55,3.96
78.97,3.89
79.39,3.46
79.81,3.24
80.23,3.41
80.65,3.63
81.07,3.68
81.49,3.54
81.91,2.82
82.33,1.59
82.76,1.42
83.18,3.12
83.60,4.78
84.02,4.70
84.44,3.92
84.86,3.83
85.28,4.22
85.70,4.63
86.12,4.99
86.54,4.77
86.96,4.21
87.38,3.66
87.80,2.75
88.22,3.22
88.64,4.72
89.06,6.05
89.48,6.48
89.91,6.27
90.33,6.13
90.75,6.24
91.17,6.43
91.59,6.48
92.01,6.01
92.43,4.79
92.85,3.09
93.27,1.47
93.69,0.33
94.11,-0.23
94.53,-0.31
94.95,-0.28
95.37,-0.56
95.79,-1.03
96.21,-1.31
96.64,-1.23
97.06,-0.99
97.48,-0.74
97.90,-0.15
98.32,0.12
98.74,0.17
99.16,0.34
99.58,0.62
100.00,0.98
101.00,1.51
101.52,2.09
102.04,2.61
102.56,3.06
103.08,3.39
103.61,3.85
104.13,4.58
104.65,4.96
105.17,4.68
105.69,4.33
106.21,4.01
106.73,3.38
107.25,2.88
107.77,2.90
108.29,2.96
108.82,2.70
109.34,2.46
109.86,2.39
110.38,2.32
110.90,1.78
111.42,1.00
111.94,0.70
112.46,0.92
112.98,1.22
113.51,1.67
114.03,2.49
114.55,2.96
115.07,2.41
115.59,1.61
116.11,1.36
116.63,1.30
117.15,1.35
117.67,1.76
118.19,1.93
118.72,1.37
119.24,0.40
119.76,-0.47
120.28,-0.68
120.80,-0.11
121.32,0.37
121.84,0.39
122.36,0.39
122.88,0.39
123.41,0.42
123.93,0.30
124.45,0.41
124.97,1.11
125.49,1.89
126.01,1.91
126.53,1.13
127.05,0.27
127.57,-0.04
128.09,0.32
128.62,0.99
129.14,1.67
129.66,2.32
130.18,2.57
130.70,1.79
131.22,0.42
131.74,-0.14
132.26,0.61
132.78,1.70
133.31,2.30
133.83,2.45
134.35,2.32
134.87,2.14
135.39,1.96
135.91,1.74
136.43,1.72
136.95,1.62
137.47,1.48
137.99,1.48
138.52,1.52
139.04,1.79
139.56,2.56
140.08,3.31
140.60,3.20
141.12,2.50
141.64,2.33
142.16,2.83
142.68,2.87
143.21,1.98
143.73,1.11
144.25,0.97
144.77,0.92
145.29,0.30
145.81,-0.51
146.33,-0.87
146.85,-0.60
147.37,-0.30
147.89,0.01
148.42,0.54
148.94,0.99
149.46,1.53
149.98,1.85
150.50,1.87
151.02,2.14
151.54,2.87
152.06,3.33
152.58,2.86
153.11,1.73
153.63,0.64
154.15,0.13
154.67,0.11
155.19,-0.07
155.71,-0.46
156.23,-0.32
156.75,0.32
157.27,0.62
157.79,0.15
158.32,-0.63
158.84,-0.73
159.36,0.40
159.88,1.27
160.40,2.14
160.92,3.50
161.44,4.14
161.96,4.28
162.48,4.05
163.01,3.47
163.53,2.78
164.05,2.19
164.57,1.77
165.09,1.71
165.61,2.02
166.13,2.33
166.65,2.49
167.17,2.77
167.69,3.35
168.22,4.01
168.74,4.31
169.26,4.18
169.78,4.10
170.30,4.12
170.82,3.82
171.34,3.68
171.86,4.61
172.38,5.37
172.91,6.14
173.43,7.17
173.95,7.74
174.47,8.22
174.99,8.28
175.51,7.91
176.03,7.88
176.55,8.38
177.07,8.55
177.59,7.85
178.12,6.70
178.64,5.63
179.16,5.07
179.68,5.59
180.20,6.96
180.72,7.61
181.24,6.61
181.76,5.20
182.28,4.78
182.81,5.08
183.33,5.27
183.85,5.34
184.37,5.78
184.89,6.21
185.41,6.63
185.93,7.38
186.45,7.35
186.97,6.30
187.49,5.21
188.02,5.49
188.54,7.04
189.06,8.43
189.58,9.13
190.10,9.70
190.62,10.48
191.14,11.62
191.66,13.06
192.18,14.34
192.71,15.34
193.23,16.44
193.75,17.92
194.27,19.81
194.79,21.80
195.31,23.55
195.83,24.96
196.35,25.77
196.87,25.82
197.39,25.62
197.92,25.41
198.44,24.84
198.96,24.12
199.48,23.29
200.00,22.14
201.00,20.65
201.59,19.75
202.17,20.06
202.76,21.09
203.34,22.30
203.93,23.55
204.51,24.63
205.10,25.58
205.69,26.96
206.27,28.83
206.86,30.60
207.44,31.90
208.03,32.46
208.62,31.69
209.20,29.63
209.79,27.13
210.37,24.95
210.96,23.63
211.54,23.44
212.13,23.24
212.72,22.53
213.30,20.42
213.89,17.92
214.47,16.53
215.06,16.25
215.64,16.70
216.23,17.95
216.82,19.14
217.40,18.97
217.99,17.74
218.57,16.55
219.16,15.57
219.75,14.76
220.33,14.55
220.92,14.66
221.50,14.09
222.09,12.68
222.67,11.23
223.26,10.18
223.85,9.59
224.43,9.89
225.02,11.48
225.60,12.62
226.19,13.76
226.78,15.67
227.36,16.95
227.95,17.88
228.53,18.14
229.12,17.52
229.70,16.83
230.29,16.74
230.88,16.77
231.46,16.66
232.05,16.77
232.63,17.12
233.22,17.52
233.80,18.10
234.39,18.89
234.98,19.45
235.56,19.28
236.15,18.92
236.73,19.90
237.32,22.70
237.91,26.05
238.49,28.44
239.08,29.28
239.66,29.21
240.25,29.14
240.83,29.33
241.42,30.77
242.01,33.05
242.59,35.19
243.18,37.16
243.76,39.35
244.35,41.60
244.93,44.13
245.52,47.48
246.11,51.21
246.69,54.34
247.28,56.17
247.86,56.65
248.45,56.65
249.04,56.95
249.62,57.05
250.21,56.19
250.79,54.78
251.38,53.89
251.96,54.68
252.55,58.91
253.14,68.24
253.72,75.14
254.31,82.04
254.89,97.48
255.48,111.73
256.07,123.18
256.65,131.34
257.24,136.29
257.82,138.23
258.41,137.67
258.99,135.89
259.58,134.64
260.17,135.58
260.75,139.67
261.34,146.94
261.92,157.50
262.51,172.99
263.09,196.32
263.68,230.05
264.27,274.79
264.85,328.47
265.44,386.55
266.02,443.34
266.61,495.18
267.20,542.90
267.78,566.62
268.37,590.34
268.95,640.65
269.54,693.45
270.12,744.48
270.71,789.94
271.30,833.11
271.88,886.56
272.47,968.92
273.05,1099.39
273.64,1288.25
274.22,1525.82
274.81,1782.85
275.40,2027.46
275.98,2243.38
276.57,2434.24
277.15,2616.30
277.74,2811.16
278.33,3043.93
278.91,3347.01
279.50,3771.24
280.08,4392.42
280.67,5281.15
281.25,6456.59
281.84,7197.10
282.43,7937.61
283.01,9939.84
283.60,12970.83
284.18,17426.42
284.77,22817.06
285.36,27479.77
285.94,29369.30
286.53,27433.00
287.11,22409.54
287.70,16282.80
288.28,10887.40
288.87,7000.59
289.46,4493.02
290.04,2926.43
290.63,1936.51
291.21,1311.49
291.80,935.03
292.38,726.48
292.97,621.92
293.56,575.20
294.14,556.48
294.73,548.11
295.31,541.22
295.90,536.49
296.49,531.75
297.07,516.55
297.66,492.19
298.24,456.77
298.83,412.13
299.41,363.71
300.00,317.77
301.00,278.82
301.70,248.66
302.39,226.45
303.09,210.03
303.79,198.00
304.49,189.42
305.18,182.72
305.88,176.83
306.58,171.94
307.27,168.20
307.97,165.98
308.67,166.38
309.37,168.66
310.06,169.03
310.76,164.10
311.46,153.86
312.15,147.33
312.85,140.79
313.55,128.26
314.25,120.80
314.94,122.82
315.64,134.49
316.34,149.90
317.04,160.51
317.73,160.11
318.43,147.09
319.13,124.47
319.82,97.97
320.52,73.08
321.22,52.98
321.92,38.53
322.61,29.36
323.31,24.32
324.01,21.43
324.70,19.35
325.40,17.99
326.10,17.01
326.80,15.74
327.49,14.62
328.19,14.63
328.89,15.12
329.58,15.60
330.28,16.15
330.98,15.42
331.68,13.76
332.37,11.86
333.07,10.11
333.77,8.98
334.46,8.83
335.16,9.00
335.86,8.14
336.56,6.05
337.25,4.32
337.95,4.19
338.65,5.13
339.35,5.80
340.04,5.49
340.74,4.82
341.44,4.80
342.13,5.01
342.83,4.28
343.53,2.84
344.23,1.89
344.92,1.70
345.62,1.71
346.32,1.72
347.01,1.90
347.71,2.53
348.41,2.91
349.11,2.19
349.80,1.08
350.50,0.89
351.20,1.55
351.89,2.19
352.59,2.54
353.29,2.38
353.99,1.63
354.68,1.18
355.38,1.77
356.08,2.60
356.77,2.39
357.47,1.37
358.17,1.17
358.87,2.20
359.56,3.01
360.26,2.80
360.96,2.16
361.65,1.48
362.35,1.07
363.05,0.66
363.75,-0.26
364.44,-1.01
365.14,-1.22
365.84,-0.29
366.54,1.76
367.23,3.54
367.93,3.93
368.63,3.57
369.32,3.18
370.02,2.68
370.72,2.26
371.42,2.01
372.11,1.75
372.81,1.87
373.51,2.62
374.20,3.19
374.90,2.91
375.60,2.30
376.30,2.14
376.99,2.24
377.69,1.93
378.39,1.39
379.08,1.29
379.78,1.18
380.48,1.13
381.18,1.04
381.87,1.13
382.57,1.59
383.27,2.26
383.96,2.95
384.66,3.70
385.36,4.54
386.06,4.83
386.75,3.70
387.45,1.42
388.15,-0.48
388.85,-0.62
389.54,0.59
390.24,1.53
390.94,1.42
391.63,0.71
392.33,-0.17
393.03,-0.92
393.73,-0.93
394.42,0.30
395.12,2.21
395.82,2.79
396.51,3.37
397.21,3.12
397.91,2.32
398.61,2.28
399.30,3.12
400.00,3.75
401.00,3.39
401.72,2.33
402.45,1.20
403.17,0.59
403.89,0.50
404.61,0.24
405.34,-0.42
406.06,-0.84
406.78,-0.53
407.50,0.32
408.23,1.13
408.95,1.76
409.67,2.43
410.39,2.90
411.12,2.74
411.84,2.40
412.56,2.42
413.28,2.65
414.01,2.92
414.73,3.19
415.45,4.15
416.18,4.77
416.90,4.27
417.62,3.41
418.34,3.67
419.07,5.13
419.79,6.21
420.51,5.99
421.23,4.99
421.96,3.79
422.68,2.66
423.40,2.12
424.12,2.52
424.85,3.42
425.57,3.60
426.29,2.78
427.01,2.37
427.74,3.37
428.46,4.62
429.18,4.70
429.91,3.72
430.63,2.69
431.35,2.48
432.07,2.27
432.80,2.28
433.52,2.30
434.24,2.19
434.96,2.02
435.69,1.85
436.41,1.82
437.13,2.19
437.85,2.87
438.58,3.15
439.30,2.98
440.02,3.14
440.74,3.50
441.47,3.15
442.19,2.44
442.91,2.36
443.64,2.56
444.36,2.00
445.08,0.80
445.80,-0.25
446.53,-0.93
447.25,-1.15
447.97,-0.37
448.69,0.45
449.42,1.27
450.14,2.51
450.86,2.51
451.58,1.84
452.31,1.20
453.03,0.76
453.75,1.06
454.47,2.45
455.20,3.87
455.92,4.20
456.64,3.98
457.36,3.94
458.09,3.25
458.81,1.25
459.53,-0.86
460.26,-1.50
460.98,-0.62
461.70,0.82
462.42,2.24
463.15,3.40
463.87,3.80
464.59,3.44
465.31,3.12
466.04,3.15
466.76,3.18
467.48,3.15
468.20,2.64
468.93,1.81
469.65,1.01
470.37,0.25
471.09,-0.25
471.82,0.36
472.54,1.84
473.26,2.49
473.99,1.74
474.71,1.16
475.43,1.91
476.15,3.19
476.88,3.71
477.60,3.30
478.32,2.73
479.04,2.49
479.77,2.46
480.49,2.45
481.21,2.43
481.93,2.20
482.66,1.86
483.38,1.87
484.10,1.89
484.82,1.98
485.55,1.66
486.27,1.45
486.99,1.66
487.72,1.60
488.44,1.16
489.16,0.88
489.88,0.74
490.61,0.44
491.33,0.10
492.05,0.13
492.77,0.87
493.50,1.95
494.22,2.49
494.94,2.15
495.66,1.23
496.39,0.17
497.11,-0.49
497.83,-0.25
498.55,0.51
499.28,0.73
500.00,-0.03
501.00,-0.50
502.01,-0.97
503.02,-0.90
504.03,0.44
505.04,2.02
506.05,2.60
507.06,2.16
508.07,1.41
509.08,0.77
510.09,0.57
511.10,0.91
512.11,1.48
513.12,2.18
514.13,3.09
515.14,3.73
516.15,3.67
517.16,3.19
518.17,2.92
519.18,3.06
520.19,3.03
521.20,2.36
522.21,1.30
523.22,0.05
524.23,-1.34
525.24,-1.86
526.26,-2.39
527.27,-2.73
528.28,-2.51
529.29,-1.87
530.30,-1.10
531.31,-0.80
532.32,-1.19
533.33,-1.61
534.34,-1.10
535.35,0.20
536.36,0.93
537.37,0.58
538.38,0.08
539.39,0.17
540.40,0.50
541.41,0.66
542.42,0.86
543.43,1.13
544.44,0.93
545.45,0.29
546.46,-0.15
547.47,-0.32
548.48,-0.48
549.49,-0.48
550.50,-0.48
551.51,-0.30
552.52,-0.24
553.53,-0.21
554.54,0.40
555.55,1.70
556.56,2.51
557.57,1.86
558.58,0.36
559.59,-0.83
560.60,-1.12
561.61,-0.48
562.62,0.50
563.63,1.13
564.64,1.60
565.65,2.40
566.66,3.08
567.67,2.96
568.68,2.29
569.69,2.01
570.70,2.62
571.71,3.59
572.72,3.78
573.73,3.26
574.74,2.75
575.76,1.42
576.77,1.00
577.78,1.59
578.79,2.33
579.80,2.56
580.81,2.38
581.82,1.97
582.83,1.35
583.84,0.57
584.85,0.02
585.86,0.18
586.87,0.99
587.88,2.02
588.89,2.87
589.90,3.04
590.91,2.29
591.92,1.10
592.93,0.32
593.94,0.43
594.95,1.25
595.96,2.22
596.97,2.83
597.98,2.77
598.99,2.70
600.00,1.88
601.00,0.86
602.18,0.22
603.36,0.07
604.54,0.15
605.71,0.44
606.89,1.02
608.07,1.57
609.25,1.88
610.43,2.13
611.61,2.42
612.79,2.64
613.96,2.70
615.14,2.65
616.32,2.54
617.50,2.09
618.68,1.12
619.86,0.20
621.04,-0.11
622.21,-0.17
623.39,-0.53
624.57,-1.04
625.75,-1.23
626.93,-1.42
628.11,-1.53
629.29,-0.96
630.46,0.65
631.64,2.76
632.82,3.93
634.00,3.20
635.18,1.35
636.36,0.09
637.54,0.01
638.71,0.65
639.89,1.56
641.07,2.22
642.25,2.05
643.43,1.33
644.61,0.92
645.79,0.85
646.96,0.55
648.14,0.28
649.32,0.65
650.50,1.46
651.68,2.22
652.86,2.79
654.04,3.00
655.21,3.21
656.39,3.59
657.57,3.82
658.75,3.71
659.93,3.50
661.11,3.62
662.29,4.06
663.46,4.51
664.64,4.89
665.82,5.17
667.00,5.25
668.18,5.11
669.36,5.05
670.54,5.16
671.71,4.94
672.89,4.33
674.07,4.12
675.25,4.63
676.43,5.51
677.61,6.54
678.79,7.59
679.96,8.28
681.14,8.64
682.32,8.87
683.50,9.11
684.68,9.67
685.86,9.90
687.04,9.83
688.21,10.11
689.39,11.05
690.57,11.64
691.75,11.02
692.93,10.10
694.11,10.07
695.29,10.63
696.46,10.99
697.64,10.80
698.82,10.23
700.00,10.04
701.00,10.85
702.98,12.26
704.96,13.14
706.94,12.57
708.92,11.15
710.90,10.40
712.88,10.47
714.86,10.25
716.84,9.94
718.82,9.64
720.80,9.44
722.78,9.75
724.76,9.99
726.74,9.80
728.72,9.41
730.70,9.29
732.68,9.43
734.66,9.32
736.64,9.18
738.62,9.84
740.60,10.98
742.58,11.53
744.56,11.10
746.54,9.79
748.52,8.12
750.50,7.51
752.48,8.69
754.46,10.16
756.44,10.30
758.42,9.66
760.40,9.27
762.38,8.83
764.36,8.37
766.34,7.91
768.32,6.66
770.30,5.43
772.28,4.71
774.26,4.71
776.24,5.09
778.22,5.48
780.20,5.71
782.18,5.87
784.16,6.25
786.14,6.81
788.12,7.11
790.10,6.97
792.08,6.81
794.06,7.03
796.04,7.52
798.02,7.95
800.00,8.16
801.00,8.25
803.36,8.41
805.71,8.40
808.07,8.22
810.43,8.41
812.79,8.60
815.14,8.79
817.50,8.63
819.86,8.13
822.21,8.12
824.57,8.62
826.93,8.93
829.29,8.70
831.64,8.01
834.00,7.11
836.36,6.45
838.71,6.22
841.07,5.75
843.43,4.83
845.79,4.60
848.14,5.63
850.50,6.58
852.86,6.29
855.21,5.44
857.57,5.05
859.93,4.90
862.29,4.41
864.64,3.71
867.00,3.28
869.36,3.29
871.71,3.31
874.07,3.68
876.43,4.26
878.79,4.64
881.14,4.06
883.50,2.56
885.86,1.52
888.21,2.16
890.57,4.05
892.93,5.50
895.29,5.32
897.64,3.97
900.00,2.77
901.00,2.19
904.67,2.12
908.33,2.54
912.00,3.21
915.67,3.57
919.33,3.12
923.00,1.71
926.67,0.32
930.33,0.37
934.00,1.44
937.67,1.61
941.33,1.78
945.00,1.19
948.67,0.80
952.33,0.88
956.00,0.61
959.67,-0.17
963.33,-0.48
967.00,0.11
970.67,0.93
974.33,1.51
978.00,1.77
981.67,1.43
985.33,0.49
989.00,-0.27
992.67,-0.11
996.33,0.73
1000.00,1.31
1001.00,1.14
1006.10,0.83
1011.21,1.12
1016.31,1.64
1021.41,1.64
1026.51,1.28
1031.62,1.14
1036.72,1.00
1041.82,0.97
1046.92,1.27
1052.03,1.65
1057.13,1.69
1062.23,1.48
1067.33,1.43
1072.44,1.76
1077.54,2.06
1082.64,1.59
1087.74,0.26
1092.85,-0.82
1097.95,-0.46
1103.05,1.03
1108.15,2.39
1113.26,3.05
1118.36,2.95
1123.46,1.99
1128.56,0.61
1133.67,-0.17
1138.77,-0.17
1143.87,-0.04
1148.97,-0.15
1154.08,-0.24
1159.18,-0.34
1164.28,-0.30
1169.38,0.10
1174.49,0.49
1179.59,0.23
1184.69,-0.46
1189.79,-0.57
1194.90,0.08
1200.00,0.47
1201.00,-0.00
1210.06,-0.72
1219.12,-0.95
1228.18,-0.83
1237.24,-0.84
1246.30,-1.11
1255.36,-1.31
1264.42,-1.14
1273.48,-0.60
1282.55,-0.04
1291.61,0.10
1300.67,-0.37
1309.73,-0.98
1318.79,-1.13
1327.85,-1.02
1336.91,-0.91
1345.97,-0.57
1355.03,0.09
1364.09,1.01
1373.15,1.51
1382.21,1.03
1391.27,-0.06
1400.33,-0.64
1409.39,-0.22
1418.45,0.38
1427.52,0.50
1436.58,0.82
1445.64,1.88
1454.70,2.69
1463.76,2.23
1472.82,1.48
1481.88,1.62
1490.94,1.77
1500.00,1.01
1501.00,-0.05
1510.24,-0.60
1519.48,-0.36
1528.72,0.56
1537.96,1.65
1547.20,1.98
1556.44,2.31
1565.69,2.13
1574.93,1.24
1584.17,0.71
1593.41,1.35
1602.65,2.25
1611.89,2.08
1621.13,1.08
1630.37,0.33
1639.61,0.38
1648.85,1.43
1658.09,2.90
1667.33,3.28
1676.57,2.23
1685.81,1.28
1695.06,1.37
1704.30,1.97
1713.54,2.48
1722.78,2.98
1732.02,3.66
1741.26,4.45
1750.50,5.20
1759.74,5.74
1768.98,5.76
1778.22,5.78
1787.46,5.32
1796.70,4.77
1805.94,4.32
1815.19,3.73
1824.43,3.23
1833.67,3.18
1842.91,3.21
1852.15,3.18
1861.39,3.76
1870.63,4.87
1879.87,5.40
1889.11,5.01
1898.35,4.62
1907.59,5.12
1916.83,6.28
1926.07,6.95
1935.31,6.38
1944.56,4.99
1953.80,3.88
1963.04,3.69
1972.28,4.08
1981.52,4.29
1990.76,4.15
2000.00,4.02
2001.00,3.55
2018.22,3.34
2035.45,3.70
2052.67,4.49
2069.90,5.29
2087.12,5.61
2104.34,5.12
2121.57,4.19
2138.79,3.31
2156.02,2.53
2173.24,2.17
2190.47,2.94
2207.69,4.31
2224.91,4.83
2242.14,4.46
2259.36,4.49
2276.59,5.36
2293.81,6.40
2311.03,6.62
2328.26,5.51
2345.48,3.76
2362.71,2.53
2379.93,2.38
2397.16,2.23
2414.38,2.71
2431.60,3.59
2448.83,4.25
2466.05,4.26
2483.28,3.94
2500.50,3.95
2517.72,4.28
2534.95,4.11
2552.17,3.21
2569.40,2.27
2586.62,1.80
2603.84,2.02
2621.07,3.44
2638.29,5.74
2655.52,7.13
2672.74,6.51
2689.97,4.79
2707.19,3.48
2724.41,3.23
2741.64,3.75
2758.86,4.34
2776.09,4.78
2793.31,4.86
2810.53,4.94
2827.76,4.20
2844.98,2.72
2862.21,1.88
2879.43,2.55
2896.66,4.07
2913.88,5.13
2931.10,5.13
2948.33,4.52
2965.55,3.99
2982.78,3.60
3000.00,3.20
3001.00,3.13
3025.99,3.88
3050.98,5.24
3075.98,6.34
3100.97,6.47
3125.96,5.98
3150.95,5.86
3175.94,6.28
3200.93,6.53
3225.93,6.41
3250.92,6.67
3275.91,7.08
3300.90,7.49
3325.89,7.85
3350.88,7.54
3375.87,7.61
3400.87,8.38
3425.86,8.85
3450.85,8.02
3475.84,5.81
3500.83,3.51
3525.82,2.59
3550.82,2.89
3575.81,3.67
3600.80,4.78
3625.79,5.83
3650.78,6.14
3675.77,5.56
3700.77,4.56
3725.76,3.91
3750.75,4.02
3775.74,4.58
3800.73,5.07
3825.73,5.25
3850.72,5.08
3875.71,4.88
3900.70,4.68
3925.69,4.52
3950.68,4.52
3975.68,3.67
4000.67,2.01
4025.66,1.29
4050.65,2.04
4075.64,2.50
4100.63,1.78
4125.62,1.42
4150.62,2.19
4175.61,2.61
4200.60,2.00
4225.59,1.58
4250.58,2.17
4275.58,3.41
4300.57,4.57
4325.56,5.02
4350.55,4.71
4375.54,4.01
4400.53,2.93
4425.52,1.79
4450.52,1.68
4475.51,2.18
4500.50,2.68
4525.49,3.56
4550.48,3.84
4575.48,4.09
4600.47,4.64
4625.46,5.08
4650.45,4.83
4675.44,4.33
4700.43,4.39
4725.42,4.44
4750.42,3.64
4775.41,2.72
4800.40,2.65
4825.39,3.10
4850.38,3.27
4875.37,2.87
4900.37,1.95
4925.36,0.84
4950.35,0.32
4975.34,0.89
5000.33,1.93
5025.33,2.61
5050.32,2.73
5075.31,2.61
5100.30,2.48
5125.29,2.09
5150.28,1.92
5175.27,2.05
5200.27,2.45
5225.26,3.53
5250.25,5.21
5275.24,6.54
5300.23,7.13
5325.23,7.40
5350.22,7.44
5375.21,7.35
5400.20,7.66
5425.19,8.42
5450.18,8.98
5475.17,9.34
5500.17,9.73
5525.16,9.68
5550.15,9.03
5575.14,8.58
5600.13,9.16
5625.12,11.19
5650.12,15.64
5675.11,20.58
5700.10,25.52
5725.09,47.66
5750.08,94.39
5775.08,183.10
5800.07,332.24
5825.06,554.71
5850.05,850.19
5875.04,1198.74
5900.03,1560.34
5925.02,1883.15
5950.02,2115.29
5975.01,2216.62
6000.00,2170.39
6024.79,1988.70
6049.64,1708.03
6074.48,1377.86
6099.32,1046.92
6124.16,752.27
6149.01,513.89
6173.85,335.72
6198.69,211.99
6223.53,132.91
6248.38,86.85
6273.22,74.46
6298.06,62.07
6322.90,48.65
6347.75,39.82
6372.59,32.76
6397.43,27.51
6422.27,24.18
6447.12,21.43
6471.96,18.17
6496.80,15.37
6521.65,14.53
6546.49,15.12
6571.33,15.31
6596.17,14.36
6621.02,13.00
6645.86,11.88
6670.70,10.91
6695.54,10.05
6720.39,9.38
6745.23,8.52
6770.07,7.33
6794.91,6.54
6819.76,6.38
6844.60,6.12
6869.44,5.78
6894.28,5.45
6919.13,4.89
6943.97,4.64
6968.81,4.17
6993.65,2.95
7018.50,1.25
7043.34,-0.11
7068.18,-0.56
7093.02,-0.12
7117.87,0.69
7142.71,1.10
7167.55,0.75
7192.39,0.16
7217.24,-0.15
7242.08,-0.31
7266.92,-0.56
7291.77,-0.90
7316.61,-1.32
7341.45,-1.62
7366.29,-1.49
7391.14,-1.35
7415.98,-1.79
7440.82,-2.19
7465.66,-1.88
7490.51,-1.56
7515.35,-0.33
7540.19,0.19
7565.03,-0.47
7589.88,-1.67
7614.72,-2.81
7639.56,-3.59
7664.40,-3.45
7689.25,-2.03
7714.09,-0.35
7738.93,0.12
7763.77,-0.48
7788.62,-1.07
7813.46,-1.23
7838.30,-0.83
7863.14,-0.24
7887.99,-0.66
7912.83,-2.35
7937.67,-3.71
7962.51,-3.66
7987.36,-2.66
8012.20,-1.53
8037.04,-1.02
8061.89,-1.12
8086.73,-1.22
8111.57,-1.40
8136.41,-1.12
8161.26,-0.67
8186.10,-0.53
8210.94,-0.96
8235.78,-1.74
8260.63,-2.35
8285.47,-2.68
8310.31,-3.04
8335.15,-3.47
8360.00,-3.54
8384.84,-3.08
8409.68,-2.61
8434.52,-2.17
8459.37,-1.42
8484.21,-0.77
8509.05,-0.64
8533.89,-0.87
8558.74,-1.39
8583.58,-1.79
8608.42,-1.54
8633.26,-1.15
8658.11,-1.14
8682.95,-1.14
8707.79,-0.96
8732.63,-0.41
8757.48,-0.09
8782.32,-0.38
8807.16,-0.99
8832.00,-1.38
8856.85,-1.54
8881.69,-1.52
8906.53,-1.27
8931.37,-1.27
8956.22,-1.78
8981.06,-2.22
9005.90,-2.23
9030.75,-1.94
9055.59,-1.26
9080.43,-0.42
9105.27,-0.14
9130.12,-0.76
9154.96,-1.64
9179.80,-1.99
9204.64,-2.02
9229.49,-2.30
9254.33,-2.44
9279.17,-2.58
9304.01,-2.10
9328.86,-0.94
9353.70,-0.10
9378.54,-0.02
9403.38,-0.11
9428.23,0.22
9453.07,0.61
9477.91,0.14
9502.75,-1.23
9527.60,-2.12
9552.44,-1.28
9577.28,0.64
9602.12,1.88
9626.97,1.96
9651.81,1.80
9676.65,1.69
9701.50,1.24
9726.34,0.71
9751.18,0.62
9776.02,0.98
9800.87,1.71
9825.71,2.59
9850.55,2.74
9875.39,2.89
9900.24,2.44
9925.08,2.08
9949.92,2.19
9974.76,2.06
9999.61,1.20
10024.45,0.06
10049.29,-0.86
10074.13,-1.71
10098.98,-2.40
10123.82,-2.26
10148.66,-1.51
10173.50,-1.20
10198.35,-1.40
10223.19,-1.41
10248.03,-1.54
10272.87,-2.35
10297.72,-2.79
10322.56,-1.61
10347.40,0.26
10372.25,1.30
10397.09,1.41
10421.93,1.06
10446.77,0.63
10471.62,0.19
10496.46,-1.09
10521.30,-2.20
10546.14,-2.89
10570.99,-3.04
10595.83,-2.40
10620.67,-1.46
10645.51,-1.29
10670.36,-1.88
10695.20,-2.41
10720.04,-2.57
10744.88,-2.33
10769.73,-1.80
10794.57,-1.52
10819.41,-1.50
10844.25,-0.97
10869.10,0.01
10893.94,0.80
10918.78,1.73
10943.62,2.92
10968.47,2.94
10993.31,1.21
11018.15,-0.73
11043.00,-1.18
11067.84,-1.62
11092.68,-1.87
11117.52,-1.93
11142.37,-1.41
11167.21,-0.26
11192.05,0.63
11216.89,0.70
11241.74,0.71
11266.58,1.34
11291.42,2.00
11316.26,2.14
11341.11,1.90
11365.95,1.66
11390.79,1.77
11415.63,2.08
11440.48,2.00
11465.32,1.55
11490.16,1.36
11515.00,1.88
11539.85,2.69
11564.69,2.74
11589.53,1.87
11614.37,1.20
11639.22,1.18
11664.06,1.16
11688.90,1.07
11713.74,0.57
11738.59,-0.08
11763.43,-0.57
11788.27,-0.50
11813.12,0.15
11837.96,0.75
11862.80,0.62
11887.64,0.08
11912.49,-0.03
11937.33,0.60
11962.17,1.30
11987.01,1.19
12011.86,0.40
12036.70,-0.10
12061.54,-0.03
12086.38,0.07
12111.23,-0.12
12136.07,-0.46
12160.91,-0.57
12185.75,0.12
12210.60,1.46
12235.44,2.50
12260.28,2.55
12285.12,2.61
12309.97,2.11
12334.81,1.70
12359.65,1.53
12384.49,1.05
12409.34,0.16
12434.18,-0.54
12459.02,-0.90
12483.86,-1.39
12508.71,-2.04
12533.55,-2.24
12558.39,-1.85
12583.24,-1.76
12608.08,-2.62
12632.92,-3.82
12657.76,-4.18
12682.61,-3.02
12707.45,-1.07
12732.29,-0.11
12757.13,-0.58
12781.98,-1.06
12806.82,-1.22
12831.66,-1.92
12856.50,-2.37
12881.35,-2.83
12906.19,-2.95
12931.03,-2.40
12955.87,-1.76
12980.72,-1.29
13005.56,-1.12
13030.40,-1.10
13055.24,-0.98
13080.09,-0.80
13104.93,-0.79
13129.77,-0.93
13154.61,-1.05
13179.46,-0.96
13204.30,-0.55
13229.14,0.04
13253.98,0.40
13278.83,-0.00
13303.67,-1.05
13328.51,-1.81
13353.35,-1.78
13378.20,-1.26
13403.04,-0.65
13427.88,-0.36
13452.73,-0.57
13477.57,-0.78
13502.41,-1.70
13527.25,-2.35
13552.10,-2.21
13576.94,-1.40
13601.78,-0.44
13626.62,0.20
13651.47,0.18
13676.31,-0.61
13701.15,-1.50
13725.99,-1.66
13750.84,-1.41
13775.68,-1.36
13800.52,-1.16
13825.36,-0.30
13850.21,0.75
13875.05,0.88
13899.89,-0.34
13924.73,-2.01
13949.58,-2.98
13974.42,-2.99
13999.26,-2.65
14024.10,-2.63
14048.95,-2.84
14073.79,-3.04
14098.63,-3.33
14123.47,-3.10
14148.32,-2.35
14173.16,-1.38
14198.00,-0.96
14222.85,-1.58
14247.69,-2.34
14272.53,-2.19
14297.37,-1.59
14322.22,-1.58
14347.06,-2.15
14371.90,-2.76
14396.74,-3.09
14421.59,-2.78
14446.43,-1.35
14471.27,0.76
14496.11,2.16
14520.96,1.98
14545.80,0.65
14570.64,-0.77
14595.48,-1.90
14620.33,-3.11
14645.17,-3.71
14670.01,-4.30
14694.85,-4.53
14719.70,-3.67
14744.54,-2.67
14769.38,-2.09
14794.22,-1.81
14819.07,-1.55
14843.91,-0.87
14868.75,0.08
14893.59,0.50
14918.44,0.30
14943.28,0.16
14968.12,0.13
14992.97,-0.30
15017.81,-0.94
15042.65,-1.08
15067.49,-0.88
15092.34,-0.94
15117.18,-0.91
15142.02,-0.19
15166.86,0.61
15191.71,0.66
15216.55,0.23
15241.39,0.01
15266.23,-0.22
15291.08,-0.78
15315.92,-1.36
15340.76,-1.93
15365.60,-2.50
15390.45,-2.43
15415.29,-1.89
15440.13,-1.85
15464.97,-1.93
15489.82,-1.04
15514.66,0.24
15539.50,0.63
15564.34,-0.11
15589.19,-1.32
15614.03,-2.13
15638.87,-2.31
15663.71,-2.35
15688.56,-2.66
15713.40,-3.03
15738.24,-2.89
15763.08,-2.14
15787.93,-1.29
15812.77,-0.95
15837.61,-1.11
15862.46,-1.26
15887.30,-1.68
15912.14,-1.60
15936.98,-1.21
15961.83,-1.05
15986.67,-1.12
16011.51,-1.02
16036.35,-0.99
16061.20,-1.74
16086.04,-3.08
16110.88,-3.92
16135.72,-4.22
16160.57,-4.86
16185.41,-5.27
16210.25,-3.84
16235.09,-1.06
16259.94,0.72
16284.78,0.57
16309.62,-0.18
16334.46,-0.31
16359.31,-0.31
16384.15,-1.21
16408.99,-2.82
16433.84,-3.38
16458.68,-3.93
16483.52,-3.93
16508.36,-3.40
16533.21,-2.91
16558.05,-2.13
16582.89,-0.89
16607.73,-0.03
16632.58,-0.25
16657.42,-1.38
16682.26,-2.67
16707.10,-3.36
16731.95,-3.19
16756.79,-2.67
16781.63,-2.64
16806.47,-3.29
16831.32,-4.09
16856.16,-4.57
16881.00,-4.48
16905.84,-3.74
16930.69,-2.99
16955.53,-2.77
16980.37,-2.90
17005.21,-3.10
17030.06,-3.03
17054.90,-2.96
17079.74,-1.85
17104.58,0.01
17129.43,1.37
17154.27,1.11
17179.11,-0.44
17203.96,-1.59
17228.80,-1.36
17253.64,-0.50
17278.48,-0.28
17303.33,-0.93
17328.17,-1.71
17353.01,-1.92
17377.85,-1.68
17402.70,-1.70
17427.54,-1.96
17452.38,-1.91
17477.22,-1.69
17502.07,-1.60
17526.91,-1.16
17551.75,-0.14
17576.59,0.72
17601.44,0.69
17626.28,0.34
17651.12,0.00
17675.96,-2.02
17700.81,-2.14
17725.65,-2.21
17750.49,-2.50
17775.33,-2.90
17800.18,-3.41
17825.02,-4.28
17849.86,-5.27
17874.71,-5.59
17899.55,-5.16
17924.39,-4.70
17949.23,-4.32
17974.07,-3.64
17998.92,-2.92
18023.76,-2.72
18048.60,-3.06
18073.45,-3.20
18098.29,-2.61
18123.13,-2.07
18147.97,-2.35
18172.82,-2.42
18197.66,-1.24
18222.50,-0.62
18247.34,0.00
18272.19,-0.38
18297.03,-1.97
18321.87,-2.87
18346.71,-2.46
18371.56,-1.75
18396.40,-1.38
18421.24,-0.95
18446.08,-0.29
18470.93,0.00
18495.77,-0.52
18520.61,-1.73
18545.46,-2.49
