Size (bp),Intensity
0.58,1305.73
1.00,1305.39
2.00,1031.11
2.42,652.62
2.84,344.35
3.26,167.42
3.68,89.98
4.10,62.28
4.52,54.16
4.94,53.51
5.36,52.87
5.79,52.81
6.21,51.09
6.63,47.31
7.05,42.78
7.47,38.41
7.89,34.24
8.31,30.20
8.73,25.97
9.15,21.45
9.57,17.41
9.99,14.25
10.41,11.87
10.83,11.09
11.25,12.25
11.67,13.12
12.09,11.85
12.52,9.18
12.94,7.74
13.36,6.30
13.78,3.76
14.20,2.29
14.62,2.28
15.04,3.07
15.46,3.76
15.88,4.21
16.30,5.03
16.72,6.44
17.14,7.84
17.56,8.61
17.98,8.51
18.40,7.67
18.82,6.36
19.24,4.80
19.67,3.60
20.09,3.21
20.51,3.26
20.93,3.43
21.35,3.60
21.77,4.14
22.19,3.83
22.61,2.49
23.03,1.66
23.45,2.07
23.87,2.38
24.29,1.50
24.71,0.11
25.13,-0.67
25.55,-0.78
25.97,-0.66
26.39,-0.55
26.82,-0.41
27.24,-0.05
27.66,0.42
28.08,0.26
28.50,-0.35
28.92,-0.96
29.34,-2.21
29.76,-2.13
30.18,-1.00
30.60,-0.31
31.02,-0.53
31.44,-0.71
31.86,-0.29
32.28,-0.05
32.70,-0.62
33.12,-0.93
33.55,0.05
33.97,1.67
34.39,3.25
34.81,5.00
35.23,6.27
35.65,5.66
36.07,3.29
36.49,2.20
36.91,1.12
37.33,0.86
37.75,2.17
38.17,3.41
38.59,3.66
39.01,3.44
39.43,3.60
39.85,4.22
40.27,4.59
40.70,4.36
41.12,4.10
41.54,4.23
41.96,4.14
42.38,3.47
42.80,3.00
43.22,3.25
43.64,3.61
44.06,3.57
44.48,3.48
44.90,3.39
45.32,3.09
45.74,2.30
46.16,1.28
46.58,0.62
47.00,0.29
47.42,0.37
47.85,0.97
48.27,1.70
48.69,2.27
49.11,2.60
49.53,2.54
49.95,2.14
50.37,1.75
50.79,1.66
51.21,1.96
51.63,2.63
52.05,3.16
52.47,3.68
52.89,5.00
53.31,6.16
53.73,7.00
54.15,7.91
54.58,8.88
55.00,9.21
55.42,8.65
55.84,8.11
56.26,8.27
56.68,8.74
57.10,9.55
57.52,11.35
57.94,13.78
58.36,15.86
58.78,17.27
59.20,18.22
59.62,19.15
60.04,19.64
60.46,20.14
60.88,20.61
61.30,20.28
61.73,19.71
62.15,19.01
62.57,17.35
62.99,14.32
63.41,10.53
63.83,7.00
64.25,5.03
64.67,5.35
65.09,6.74
65.51,7.32
65.93,6.64
66.35,5.25
66.77,3.63
67.19,2.23
67.61,1.82
68.03,1.42
68.45,1.06
68.88,0.84
69.30,0.97
69.72,1.71
70.14,2.52
70.56,2.73
70.98,2.62
71.40,3.09
71.82,4.38
72.24,5.57
72.66,5.68
73.08,4.90
73.50,3.81
73.92,2.63
74.34,1.97
74.76,2.47
75.18,3.96
75.61,4.87
76.03,5.78
76.45,6.70
76.87,5.83
77.29,4.36
77.71,4.18
78.13,4.82
78.55,4.43
78.97,2.81
79.39,1.49
79.81,1.41
80.23,2.21
80.65,3.37
81.07,4.43
81.49,4.56
81.91,3.61
82.33,2.52
82.76,1.73
83.18,0.90
83.60,0.46
84.02,0.03
84.44,-0.52
84.86,-0.42
85.28,0.30
85.70,1.18
86.12,1.87
86.54,2.75
86.96,4.03
87.38,4.89
87.80,4.49
88.22,3.23
88.64,2.24
89.06,1.93
89.48,1.75
89.91,1.61
90.33,2.19
90.75,3.46
91.17,3.87
91.59,4.28
92.01,3.83
92.43,3.02
92.85,3.50
93.27,4.85
93.69,4.91
94.11,3.65
94.53,3.17
94.95,3.97
95.37,4.43
95.79,3.83
96.21,3.26
96.64,3.50
97.06,4.28
97.48,5.14
97.90,5.77
98.32,6.04
98.74,6.01
99.16,5.89
99.58,5.76
100.00,5.58
101.00,5.69
101.52,5.68
102.04,5.27
102.56,5.06
103.08,5.08
103.61,4.59
104.13,4.02
104.65,4.49
105.17,5.70
105.69,6.45
106.21,6.34
106.73,5.69
107.25,5.14
107.77,5.36
108.29,6.18
108.82,6.64
109.34,6.48
109.86,6.33
110.38,5.98
110.90,6.28
111.42,6.66
111.94,6.07
112.46,4.59
112.98,3.22
113.51,2.39
114.03,1.96
114.55,1.96
115.07,2.67
115.59,4.03
116.11,5.14
116.63,5.11
117.15,4.54
117.67,4.41
118.19,4.31
118.72,3.83
119.24,3.36
119.76,2.06
120.28,1.52
120.80,2.08
121.32,3.79
121.84,6.26
122.36,8.01
122.88,7.67
123.41,5.77
123.93,4.40
124.45,4.82
124.97,6.23
125.49,7.36
126.01,7.66
126.53,6.99
127.05,5.88
127.57,5.34
128.09,5.54
128.62,5.54
129.14,5.53
129.66,4.50
130.18,3.03
130.70,2.44
131.22,3.24
131.74,4.71
132.26,5.84
132.78,6.33
133.31,6.49
133.83,6.41
134.35,5.92
134.87,5.23
135.39,4.98
135.91,5.35
136.43,5.89
136.95,6.38
137.47,6.90
137.99,7.36
138.52,7.45
139.04,7.55
139.56,7.53
140.08,7.43
140.60,7.30
141.12,7.43
141.64,7.79
142.16,7.84
142.68,7.42
143.21,7.07
143.73,7.15
144.25,7.70
144.77,8.51
145.29,8.94
145.81,8.60
146.33,8.02
146.85,7.74
147.37,7.67
147.89,7.65
148.42,7.62
148.94,7.89
149.46,8.86
149.98,10.35
150.50,11.87
151.02,13.06
151.54,13.48
152.06,13.30
152.58,13.69
153.11,15.33
153.63,17.52
154.15,19.45
154.67,20.80
155.19,21.33
155.71,21.61
156.23,23.10
156.75,25.88
157.27,28.07
157.79,28.15
158.32,28.22
158.84,26.74
159.36,24.96
159.88,23.65
160.40,22.79
160.92,22.29
161.44,21.94
161.96,21.02
162.48,18.94
163.01,16.32
163.53,14.76
164.05,14.81
164.57,15.28
165.09,15.28
165.61,15.18
166.13,15.48
166.65,16.09
167.17,16.29
167.69,16.50
168.22,16.47
168.74,16.36
169.26,16.87
169.78,18.48
170.30,20.51
170.82,21.48
171.34,21.06
171.86,20.04
172.38,19.01
172.91,18.52
173.43,18.90
173.95,19.73
174.47,20.78
174.99,22.29
175.51,23.91
176.03,24.95
176.55,25.45
177.07,25.83
177.59,26.20
178.12,27.36
178.64,28.18
179.16,28.57
179.68,29.32
180.20,30.72
180.72,32.81
181.24,35.57
181.76,37.97
182.28,39.48
182.81,41.29
183.33,44.44
183.85,47.98
184.37,50.58
184.89,52.05
185.41,52.82
185.93,53.35
186.45,54.25
186.97,54.87
187.49,55.49
188.02,56.58
188.54,57.82
189.06,59.54
189.58,60.79
190.10,60.80
190.62,60.61
191.14,61.41
191.66,62.87
192.18,64.54
192.71,66.62
193.23,68.87
193.75,70.80
194.27,72.60
194.79,74.82
195.31,77.34
195.83,79.54
196.35,80.55
196.87,81.56
197.39,84.08
197.92,86.88
198.44,89.16
198.96,91.07
199.48,93.43
200.00,96.31
201.00,98.78
201.59,100.40
202.17,102.09
202.76,104.90
203.34,108.47
203.93,111.75
204.51,114.58
205.10,117.47
205.69,120.65
206.27,123.64
206.86,125.94
207.44,126.94
208.03,127.94
208.62,130.21
209.20,132.38
209.79,134.29
210.37,136.93
210.96,140.87
211.54,145.24
212.13,148.99
212.72,151.71
213.30,153.93
213.89,157.34
214.47,162.61
215.06,168.13
215.64,172.83
216.23,177.71
216.82,183.29
217.40,188.23
217.99,191.56
218.57,193.19
219.16,194.81
219.75,199.82
220.33,205.44
220.92,209.46
221.50,212.17
222.09,215.31
222.67,219.28
223.26,223.52
223.85,227.80
224.43,232.07
225.02,236.37
225.60,241.05
226.19,246.27
226.78,252.02
227.36,258.56
227.95,265.98
228.53,273.70
229.12,277.32
229.70,280.94
230.29,287.61
230.88,294.08
231.46,300.26
232.05,306.17
232.63,312.56
233.22,319.39
233.80,325.47
234.39,330.60
234.98,335.42
235.56,339.29
236.15,341.58
236.73,343.94
237.32,348.68
237.91,355.85
238.49,363.67
239.08,370.81
239.66,377.55
240.25,381.02
240.83,384.49
241.42,391.43
242.01,398.15
242.59,404.95
243.18,411.68
243.76,417.64
244.35,422.69
244.93,427.57
245.52,432.84
246.11,438.43
246.69,444.40
247.28,451.00
247.86,458.00
248.45,465.52
249.04,474.18
249.62,482.65
250.21,487.75
250.79,488.36
251.38,487.53
251.96,486.69
252.55,485.33
253.14,485.10
253.72,485.96
254.31,488.28
254.89,492.02
255.48,495.88
256.07,497.96
256.65,497.62
257.24,496.73
257.82,497.45
258.41,499.08
258.99,499.35
259.58,497.73
260.17,495.45
260.75,493.79
261.34,493.72
261.92,494.78
262.51,495.85
263.09,499.83
263.68,504.71
264.27,510.40
264.85,517.14
265.44,523.80
266.02,529.28
266.61,533.71
267.20,536.76
267.78,537.67
268.37,536.61
268.95,534.61
269.54,533.00
270.12,532.52
270.71,532.66
271.30,532.96
271.88,533.78
272.47,535.16
273.05,535.86
273.64,536.57
274.22,537.66
274.81,538.51
275.40,539.65
275.98,541.58
276.57,543.72
277.15,545.05
277.74,545.44
278.33,545.35
278.91,544.68
279.50,543.26
280.08,541.74
280.67,540.88
281.25,540.93
281.84,542.20
282.43,545.03
283.01,548.58
283.60,550.09
284.18,551.60
284.77,554.43
285.36,557.52
285.94,559.54
286.53,559.72
287.11,559.09
287.70,557.92
288.28,555.33
288.87,551.77
289.46,548.85
290.04,546.98
290.63,545.48
291.21,544.71
291.80,545.72
292.38,548.37
292.97,551.21
293.56,552.86
294.14,552.89
294.73,552.67
295.31,552.46
295.90,552.94
296.49,554.54
297.07,556.96
297.66,559.83
298.24,562.36
298.83,564.49
299.41,566.79
300.00,569.32
301.00,572.01
301.70,574.72
302.39,577.22
303.09,580.63
303.79,585.99
304.49,591.56
305.18,595.01
305.88,596.59
306.58,597.64
307.27,598.08
307.97,598.52
308.67,598.96
309.37,598.90
310.06,598.51
310.76,597.92
311.46,597.10
312.15,595.68
312.85,592.79
313.55,587.98
314.25,581.95
314.94,575.47
315.64,568.89
316.34,562.91
317.04,558.21
317.73,554.40
318.43,550.23
319.13,545.20
319.82,542.58
320.52,539.96
321.22,535.04
321.92,530.65
322.61,527.20
323.31,524.86
324.01,523.17
324.70,521.61
325.40,519.69
326.10,516.78
326.80,512.28
327.49,505.91
328.19,498.56
328.89,492.96
329.58,491.02
330.28,491.28
330.98,491.00
331.68,489.59
332.37,487.83
333.07,486.91
333.77,485.99
334.46,484.52
335.16,484.53
335.86,486.45
336.56,489.86
337.25,494.14
337.95,498.35
338.65,501.46
339.35,502.87
340.04,502.36
340.74,500.97
341.44,500.24
342.13,499.51
342.83,497.02
343.53,492.73
344.23,487.22
344.92,480.95
345.62,475.53
346.32,473.93
347.01,472.32
347.71,470.43
348.41,468.29
349.11,466.20
349.80,465.80
350.50,467.63
351.20,470.83
351.89,474.28
352.59,477.07
353.29,478.80
353.99,478.78
354.68,476.33
355.38,472.51
356.08,469.60
356.77,468.26
357.47,467.20
358.17,465.52
358.87,464.50
359.56,463.49
360.26,461.55
360.96,459.62
361.65,457.51
362.35,455.55
363.05,454.14
363.75,453.19
364.44,452.09
365.14,450.51
365.84,448.89
366.54,447.50
367.23,445.97
367.93,443.90
368.63,441.35
369.32,438.89
370.02,436.81
370.72,435.08
371.42,434.25
372.11,434.51
372.81,434.77
373.51,435.56
374.20,435.45
374.90,434.59
375.60,433.52
376.30,433.08
376.99,434.37
377.69,436.84
378.39,438.57
379.08,438.62
379.78,437.52
380.48,436.15
381.18,434.91
381.87,433.90
382.57,433.45
383.27,433.45
383.96,432.88
384.66,431.41
385.36,430.67
386.06,429.93
386.75,428.79
387.45,427.51
388.15,425.83
388.85,423.89
389.54,421.97
390.24,420.15
390.94,418.07
391.63,415.75
392.33,414.27
393.03,414.36
393.73,415.30
394.42,416.88
395.12,420.09
395.82,424.56
396.51,428.58
397.21,431.44
397.91,432.40
398.61,433.35
399.30,434.54
400.00,435.70
401.00,437.47
401.72,439.39
402.45,440.35
403.17,439.88
403.89,438.79
404.61,438.25
405.34,438.53
406.06,439.03
406.78,439.44
407.50,439.94
408.23,439.98
408.95,437.92
409.67,432.27
410.39,423.03
411.12,412.16
411.84,407.05
412.56,401.95
413.28,393.45
414.01,386.51
414.73,380.25
415.45,374.24
416.18,369.18
416.90,365.32
417.62,361.62
418.34,356.87
419.07,351.06
419.79,345.96
420.51,343.38
421.23,342.74
421.96,341.95
422.68,340.51
423.40,339.97
424.12,341.10
424.85,341.95
425.57,342.80
426.29,344.01
427.01,344.34
427.74,343.31
428.46,340.97
429.18,338.13
429.91,334.69
430.63,330.34
431.35,326.84
432.07,325.95
432.80,326.30
433.52,325.79
434.24,324.54
434.96,323.39
435.69,322.18
436.41,320.77
437.13,319.41
437.85,318.26
438.58,317.85
439.30,317.45
440.02,316.98
440.74,316.34
441.47,315.16
442.19,313.21
442.91,310.11
443.64,305.95
444.36,301.14
445.08,296.50
445.80,293.25
446.53,291.68
447.25,291.08
447.97,291.10
448.69,291.64
449.42,292.62
450.14,293.80
450.86,294.47
451.58,294.40
452.31,294.25
453.03,294.10
453.75,294.43
454.47,296.14
455.20,298.75
455.92,300.52
456.64,300.34
457.36,298.40
458.09,295.51
458.81,292.91
459.53,291.42
460.26,290.24
460.98,288.04
461.70,285.45
462.42,284.17
463.15,284.37
463.87,284.97
464.59,284.76
465.31,283.61
466.04,282.46
466.76,277.71
467.48,271.65
468.20,265.80
468.93,260.97
469.65,257.38
470.37,255.01
471.09,253.43
471.82,251.95
472.54,250.58
473.26,249.74
473.99,248.88
474.71,247.17
475.43,244.87
476.15,242.51
476.88,239.94
477.60,237.29
478.32,234.94
479.04,233.81
479.77,232.68
480.49,230.57
481.21,229.26
481.93,228.22
482.66,226.11
483.38,222.71
484.10,218.88
484.82,215.68
485.55,213.03
486.27,210.10
486.99,207.74
487.72,207.30
488.44,208.04
489.16,208.89
489.88,210.08
490.61,211.92
491.33,213.99
492.05,215.24
492.77,215.07
493.50,214.90
494.22,213.23
494.94,210.86
495.66,207.74
496.39,203.60
497.11,198.99
497.83,195.00
498.55,192.19
499.28,190.38
500.00,188.86
501.00,187.04
502.01,185.27
503.02,184.34
504.03,183.55
505.04,181.34
506.05,178.04
507.06,175.49
508.07,175.02
509.08,174.56
510.09,174.87
511.10,175.87
512.11,176.61
513.12,176.35
514.13,175.27
515.14,173.46
516.15,170.50
517.16,166.58
518.17,162.94
519.18,160.63
520.19,159.24
521.20,157.74
522.21,155.95
523.22,154.09
524.23,152.13
525.24,150.16
526.26,148.76
527.27,148.61
528.28,148.46
529.29,148.83
530.30,148.36
531.31,146.14
532.32,142.71
533.33,139.37
534.34,137.01
535.35,135.59
536.36,135.17
537.37,136.10
538.38,137.62
539.39,138.27
540.40,137.53
541.41,135.83
542.42,133.95
543.43,132.75
544.44,132.62
545.45,133.07
546.46,133.22
547.47,133.37
548.48,133.28
549.49,133.33
550.50,134.07
551.51,134.80
552.52,134.15
553.53,132.04
554.54,130.00
555.55,129.25
556.56,129.47
557.57,129.30
558.58,128.01
559.59,126.51
560.60,126.44
561.61,128.33
562.62,131.15
563.63,133.37
564.64,133.84
565.65,134.31
566.66,134.00
567.67,132.30
568.68,129.24
569.69,125.93
570.70,123.56
571.71,121.81
572.72,119.78
573.73,117.80
574.74,116.86
575.76,116.79
576.77,116.29
577.78,114.84
578.79,113.20
579.80,112.08
580.81,111.47
581.82,111.32
582.83,111.40
583.84,111.19
584.85,110.98
585.86,109.69
586.87,108.14
587.88,107.05
588.89,106.37
589.90,105.78
590.91,105.17
591.92,104.62
592.93,104.53
593.94,104.96
594.95,105.10
595.96,104.54
596.97,103.61
597.98,102.25
598.99,100.57
600.00,99.40
601.00,99.05
602.18,99.11
603.36,99.17
604.54,99.73
605.71,100.58
606.89,100.77
608.07,100.07
609.25,99.87
610.43,101.18
611.61,102.83
612.79,103.16
613.96,102.36
615.14,101.66
616.32,101.73
617.50,102.23
618.68,101.78
619.86,99.39
621.04,96.35
622.21,94.76
623.39,94.71
624.57,94.73
625.75,94.75
626.93,94.44
628.11,94.27
629.29,93.54
630.46,91.21
631.64,88.28
632.82,86.73
634.00,86.77
635.18,86.97
636.36,86.60
637.54,85.65
638.71,84.18
639.89,82.84
641.07,82.44
642.25,82.78
643.43,82.93
644.61,82.40
645.79,81.65
646.96,81.40
648.14,81.15
649.32,80.69
650.50,79.78
651.68,78.27
652.86,76.27
654.04,74.29
655.21,73.31
656.39,73.56
657.57,73.64
658.75,72.76
659.93,71.96
661.11,71.75
662.29,71.45
663.46,71.03
664.64,70.86
665.82,71.07
667.00,71.53
668.18,71.60
669.36,71.67
670.54,71.30
671.71,71.16
672.89,71.52
674.07,71.30
675.25,69.60
676.43,67.17
677.61,65.81
678.79,66.33
679.96,67.55
681.14,67.96
682.32,67.45
683.50,67.11
684.68,67.62
685.86,67.96
687.04,66.71
688.21,64.60
689.39,63.51
690.57,63.68
691.75,63.86
692.93,64.52
694.11,64.33
695.29,63.19
696.46,61.91
697.64,60.93
698.82,59.98
700.00,59.14
701.00,58.85
702.98,59.07
704.96,59.34
706.94,59.25
708.92,58.78
710.90,58.41
712.88,58.39
714.86,58.08
716.84,56.99
718.82,55.92
720.80,55.77
722.78,55.62
724.76,55.89
726.74,56.19
728.72,55.88
730.70,54.87
732.68,54.11
734.66,53.92
736.64,53.41
738.62,52.22
740.60,50.98
742.58,50.15
744.56,49.90
746.54,50.02
748.52,49.89
750.50,49.46
752.48,49.41
754.46,50.07
756.44,50.42
758.42,50.76
760.40,50.81
762.38,50.39
764.36,50.02
766.34,49.95
768.32,50.32
770.30,51.03
772.28,51.36
774.26,50.96
776.24,50.49
778.22,50.68
780.20,51.15
782.18,50.98
784.16,50.19
786.14,49.58
788.12,49.23
790.10,48.38
792.08,47.18
794.06,47.03
796.04,46.87
798.02,47.80
800.00,48.55
801.00,47.82
803.36,45.99
805.71,44.64
808.07,44.56
810.43,45.00
812.79,45.15
815.14,45.12
817.50,45.03
819.86,44.68
822.21,44.25
824.57,44.08
826.93,44.35
829.29,44.84
831.64,44.75
834.00,43.65
836.36,43.12
838.71,42.59
841.07,42.69
843.43,43.35
845.79,43.29
848.14,42.46
850.50,41.61
852.86,40.92
855.21,40.50
857.57,40.68
859.93,40.98
862.29,40.50
864.64,39.50
867.00,38.95
869.36,38.91
871.71,38.69
874.07,38.09
876.43,37.37
878.79,37.01
881.14,36.64
883.50,35.72
885.86,34.79
888.21,34.32
890.57,34.24
892.93,34.09
895.29,33.92
897.64,34.02
900.00,34.24
901.00,34.29
904.67,34.04
908.33,33.36
912.00,32.17
915.67,31.13
919.33,30.85
923.00,30.81
926.67,30.70
930.33,31.17
934.00,31.45
937.67,31.73
941.33,31.07
945.00,29.47
948.67,28.43
952.33,28.57
956.00,29.56
959.67,30.53
963.33,30.60
967.00,29.73
970.67,28.68
974.33,27.98
978.00,27.59
981.67,27.52
985.33,27.89
989.00,28.51
992.67,28.81
996.33,28.45
1000.00,27.97
1001.00,27.50
1006.10,26.36
1011.21,25.57
1016.31,25.29
1021.41,25.06
1026.51,24.33
1031.62,23.30
1036.72,22.69
1041.82,22.71
1046.92,22.76
1052.03,22.43
1057.13,22.20
1062.23,22.39
1067.33,22.36
1072.44,21.63
1077.54,20.76
1082.64,20.37
1087.74,20.20
1092.85,20.01
1097.95,19.83
1103.05,19.77
1108.15,20.62
1113.26,21.40
1118.36,20.81
1123.46,19.50
1128.56,18.80
1133.67,18.39
1138.77,17.38
1143.87,16.09
1148.97,15.45
1154.08,15.44
1159.18,15.19
1164.28,14.46
1169.38,13.82
1174.49,13.76
1179.59,14.42
1184.69,15.51
1189.79,15.65
1194.90,15.78
1200.00,13.97
1201.00,10.99
1210.06,8.89
1219.12,8.01
1228.18,7.61
1237.24,7.64
1246.30,8.24
1255.36,9.15
1264.42,10.48
1273.48,12.19
1282.55,13.22
1291.61,12.96
1300.67,12.36
1309.73,12.24
1318.79,12.09
1327.85,11.56
1336.91,11.26
1345.97,10.97
1355.03,10.33
1364.09,9.30
1373.15,7.96
1382.21,7.07
1391.27,7.06
1400.33,7.30
1409.39,7.30
1418.45,7.26
1427.52,7.07
1436.58,6.64
1445.64,6.25
1454.70,5.92
1463.76,5.74
1472.82,6.26
1481.88,7.37
1490.94,7.90
1500.00,7.17
1501.00,6.59
1510.24,6.00
1519.48,5.55
1528.72,5.94
1537.96,6.71
1547.20,7.34
1556.44,7.37
1565.69,7.25
1574.93,8.01
1584.17,9.26
1593.41,9.37
1602.65,8.22
1611.89,7.27
1621.13,6.77
1630.37,6.02
1639.61,5.51
1648.85,5.89
1658.09,6.29
1667.33,5.42
1676.57,4.33
1685.81,3.24
1695.06,1.13
1704.30,0.51
1713.54,1.20
1722.78,1.87
1732.02,2.08
1741.26,2.58
1750.50,3.85
1759.74,5.60
1768.98,7.37
1778.22,8.62
1787.46,9.16
1796.70,9.43
1805.94,9.79
1815.19,9.95
1824.43,9.40
1833.67,8.11
1842.91,7.51
1852.15,6.91
1861.39,7.04
1870.63,8.46
1879.87,9.62
1889.11,9.59
1898.35,9.19
1907.59,9.31
1916.83,9.63
1926.07,9.24
1935.31,7.96
1944.56,6.73
1953.80,6.63
1963.04,7.35
1972.28,7.79
1981.52,7.81
1990.76,7.84
2000.00,7.86
2001.00,7.86
2018.22,7.94
2035.45,8.02
2052.67,8.35
2069.90,9.02
2087.12,10.06
2104.34,10.72
2121.57,10.34
2138.79,9.33
2156.02,8.44
2173.24,7.82
2190.47,7.21
2207.69,6.66
2224.91,6.56
2242.14,7.16
2259.36,7.79
2276.59,7.85
2293.81,8.07
2311.03,9.02
2328.26,9.64
2345.48,9.30
2362.71,8.96
2379.93,7.57
2397.16,6.99
2414.38,8.06
2431.60,9.91
2448.83,10.83
2466.05,10.44
2483.28,9.79
2500.50,9.26
2517.72,8.42
2534.95,7.52
2552.17,7.16
2569.40,7.24
2586.62,7.29
2603.84,7.34
2621.07,7.87
2638.29,8.70
2655.52,8.77
2672.74,8.83
2689.97,8.08
2707.19,7.29
2724.41,6.87
2741.64,7.01
2758.86,8.00
2776.09,9.11
2793.31,9.04
2810.53,7.85
2827.76,6.86
2844.98,6.66
2862.21,7.02
2879.43,7.66
2896.66,7.96
2913.88,7.35
2931.10,6.43
2948.33,6.09
2965.55,6.14
2982.78,6.02
3000.00,5.90
3001.00,5.18
3025.99,4.35
3050.98,3.83
3075.98,3.48
3100.97,3.19
3125.96,3.63
3150.95,5.05
3175.94,6.26
3200.93,6.50
3225.93,6.59
3250.92,7.16
3275.91,7.37
3300.90,6.59
3325.89,5.67
3350.88,5.20
3375.87,4.64
3400.87,4.28
3425.86,3.91
3450.85,3.72
3475.84,4.34
3500.83,5.14
3525.82,5.44
3550.82,5.42
3575.81,5.82
3600.80,6.41
3625.79,6.31
3650.78,5.51
3675.77,4.73
3700.77,4.41
3725.76,4.88
3750.75,5.93
3775.74,6.73
3800.73,7.29
3825.73,8.14
3850.72,8.60
3875.71,8.10
3900.70,7.60
3925.69,5.60
3950.68,4.01
3975.68,3.33
4000.67,3.22
4025.66,3.69
4050.65,4.74
4075.64,5.71
4100.63,5.79
4125.62,4.67
4150.62,3.05
4175.61,2.33
4200.60,2.93
4225.59,3.90
4250.58,4.56
4275.58,4.95
4300.57,5.34
4325.56,5.94
4350.55,6.14
4375.54,6.33
4400.53,5.81
4425.52,4.59
4450.52,3.65
4475.51,3.38
4500.50,3.36
4525.49,3.24
4550.48,3.21
4575.48,3.67
4600.47,4.34
4625.46,4.55
4650.45,4.08
4675.44,3.44
4700.43,3.29
4725.42,3.67
4750.42,4.11
4775.41,4.67
4800.40,5.27
4825.39,5.86
4850.38,7.29
4875.37,7.74
4900.37,6.81
4925.36,5.52
4950.35,4.92
4975.34,4.86
5000.33,4.95
5025.33,5.21
5050.32,5.36
5075.31,5.14
5100.30,5.02
5125.29,5.16
5150.28,5.21
5175.27,5.17
5200.27,5.28
5225.26,5.59
5250.25,6.22
5275.24,6.61
5300.23,7.01
5325.23,7.29
5350.22,7.11
5375.21,7.48
5400.20,9.22
5425.19,12.11
5450.18,14.93
5475.17,16.45
5500.17,16.81
5525.16,16.94
5550.15,17.28
5575.14,17.71
5600.13,17.84
5625.12,17.88
5650.12,19.61
5675.11,26.33
5700.10,43.61
5725.09,81.04
5750.08,116.27
5775.08,151.51
5800.07,266.87
5825.06,433.15
5850.05,647.41
5875.04,894.94
5900.03,1147.57
5925.02,1367.82
5950.02,1520.01
5975.01,1579.69
6000.00,1537.53
6024.79,1402.08
6049.64,1199.26
6074.48,964.29
6099.32,730.75
6124.16,523.20
6149.01,355.17
6173.85,230.33
6198.69,187.45
6223.53,144.57
6248.38,89.26
6273.22,55.23
6298.06,34.95
6322.90,23.27
6347.75,17.25
6372.59,14.76
6397.43,13.54
6422.27,12.18
6447.12,10.72
6471.96,9.75
6496.80,9.29
6521.65,9.09
6546.49,9.53
6571.33,10.68
6596.17,11.81
6621.02,12.39
6645.86,12.13
6670.70,11.50
6695.54,10.87
6720.39,9.35
6745.23,8.09
6770.07,6.48
6794.91,4.53
6819.76,3.13
6844.60,2.65
6869.44,2.73
6894.28,2.86
6919.13,2.84
6943.97,2.66
6968.81,2.02
6993.65,1.18
7018.50,1.03
7043.34,1.58
7068.18,2.17
7093.02,2.85
7117.87,3.66
7142.71,3.84
7167.55,4.02
7192.39,3.65
7217.24,3.01
7242.08,2.75
7266.92,3.14
7291.77,3.77
7316.61,3.93
7341.45,3.68
7366.29,3.69
7391.14,4.11
7415.98,4.47
7440.82,4.12
7465.66,2.88
7490.51,1.42
7515.35,0.44
7540.19,0.17
7565.03,0.55
7589.88,0.95
7614.72,1.35
7639.56,2.29
7664.40,3.01
7689.25,3.06
7714.09,2.38
7738.93,1.52
7763.77,0.93
7788.62,0.67
7813.46,0.81
7838.30,1.06
7863.14,0.89
7887.99,0.52
7912.83,0.38
7937.67,0.25
7962.51,0.03
7987.36,0.24
8012.20,0.83
8037.04,1.12
8061.89,1.02
8086.73,0.93
8111.57,0.78
8136.41,0.91
8161.26,1.31
8186.10,2.10
8210.94,2.94
8235.78,3.28
8260.63,3.61
8285.47,4.98
8310.31,6.83
8335.15,7.71
8360.00,7.65
8384.84,7.60
8409.68,7.76
8434.52,7.80
8459.37,7.53
8484.21,6.93
8509.05,6.21
8533.89,5.92
8558.74,5.64
8583.58,5.09
8608.42,4.63
8633.26,4.41
8658.11,4.04
8682.95,3.05
8707.79,2.12
8732.63,2.25
8757.48,2.98
8782.32,3.21
8807.16,3.12
8832.00,3.21
8856.85,2.84
8881.69,1.80
8906.53,1.28
8931.37,1.75
8956.22,1.99
8981.06,1.75
9005.90,1.51
9030.75,1.57
9055.59,2.51
9080.43,2.66
9105.27,1.33
9130.12,0.13
9154.96,0.43
9179.80,1.84
9204.64,3.17
9229.49,3.89
9254.33,4.29
9279.17,4.43
9304.01,4.10
9328.86,3.56
9353.70,3.27
9378.54,3.11
9403.38,2.60
9428.23,1.68
9453.07,1.26
9477.91,0.84
9502.75,0.45
9527.60,0.64
9552.44,1.47
9577.28,2.60
9602.12,3.23
9626.97,2.96
9651.81,2.15
9676.65,1.33
9701.50,0.80
9726.34,0.57
9751.18,0.60
9776.02,0.93
9800.87,1.33
9825.71,1.45
9850.55,1.30
9875.39,1.24
9900.24,1.42
9925.08,1.60
9949.92,2.11
9974.76,2.36
9999.61,2.55
10024.45,2.94
10049.29,3.23
10074.13,2.93
10098.98,2.29
10123.82,2.06
10148.66,2.50
10173.50,3.05
10198.35,3.04
10223.19,2.70
10248.03,3.00
10272.87,4.11
10297.72,4.92
10322.56,4.65
10347.40,3.76
10372.25,3.34
10397.09,2.93
10421.93,2.20
10446.77,1.33
10471.62,0.35
10496.46,-0.01
10521.30,0.98
10546.14,2.54
10570.99,3.15
10595.83,2.56
10620.67,1.72
10645.51,1.32
10670.36,1.43
10695.20,1.86
10720.04,2.09
10744.88,1.67
10769.73,0.86
10794.57,0.46
10819.41,0.79
10844.25,1.08
10869.10,1.37
10893.94,1.53
10918.78,1.16
10943.62,0.63
10968.47,0.33
10993.31,0.78
11018.15,2.17
11043.00,3.78
11067.84,4.72
11092.68,4.88
11117.52,4.40
11142.37,3.26
11167.21,1.87
11192.05,0.95
11216.89,0.80
11241.74,1.33
11266.58,2.34
11291.42,2.88
11316.26,3.42
11341.11,3.98
11365.95,3.47
11390.79,2.36
11415.63,2.10
11440.48,2.93
11465.32,3.71
11490.16,4.04
11515.00,4.09
11539.85,3.24
11564.69,1.07
11589.53,-1.37
11614.37,-2.41
11639.22,-1.22
11664.06,1.36
11688.90,3.32
11713.74,3.68
11738.59,3.34
11763.43,3.17
11788.27,3.01
11813.12,2.25
11837.96,1.02
11862.80,0.35
11887.64,0.71
11912.49,1.26
11937.33,1.28
11962.17,1.01
11987.01,0.81
12011.86,0.68
12036.70,0.57
12061.54,0.35
12086.38,-0.03
12111.23,-0.23
12136.07,-0.01
12160.91,0.44
12185.75,1.16
12210.60,2.20
12235.44,2.52
12260.28,2.84
12285.12,2.45
12309.97,1.36
12334.81,0.30
12359.65,0.16
12384.49,1.48
12409.34,3.28
12434.18,4.11
12459.02,3.75
12483.86,2.99
12508.71,2.91
12533.55,3.95
12558.39,4.94
12583.24,4.86
12608.08,4.61
12632.92,5.10
12657.76,5.51
12682.61,5.30
12707.45,5.09
12732.29,4.59
12757.13,4.69
12781.98,4.86
12806.82,4.84
12831.66,4.90
12856.50,4.61
12881.35,3.75
12906.19,3.55
12931.03,4.55
12955.87,5.73
12980.72,6.32
13005.56,6.18
13030.40,5.12
13055.24,3.72
13080.09,3.04
13104.93,2.88
13129.77,2.34
13154.61,1.92
13179.46,1.50
13204.30,1.16
13229.14,1.69
13253.98,2.74
13278.83,3.70
13303.67,4.45
13328.51,5.09
13353.35,5.22
13378.20,4.38
13403.04,2.91
13427.88,1.82
13452.73,1.59
13477.57,1.39
13502.41,0.22
13527.25,-1.21
13552.10,-1.10
13576.94,0.73
13601.78,2.31
13626.62,2.30
13651.47,2.30
13676.31,1.53
13701.15,1.30
13725.99,1.60
13750.84,1.82
13775.68,1.89
13800.52,2.08
13825.36,2.46
13850.21,2.80
13875.05,2.85
13899.89,2.57
13924.73,2.17
13949.58,1.89
13974.42,1.92
13999.26,2.08
14024.10,2.07
14048.95,2.21
14073.79,2.53
14098.63,2.84
14123.47,3.52
14148.32,3.88
14173.16,4.04
14198.00,3.68
14222.85,2.29
14247.69,0.40
14272.53,-0.66
14297.37,-0.40
14322.22,0.22
14347.06,0.32
14371.90,0.04
14396.74,-0.30
14421.59,-0.42
14446.43,0.36
14471.27,1.87
14496.11,2.81
14520.96,2.87
14545.80,2.85
14570.64,2.83
14595.48,2.85
14620.33,2.68
14645.17,2.63
14670.01,3.42
14694.85,5.28
14719.70,7.14
14744.54,7.14
14769.38,4.90
14794.22,2.26
14819.07,1.18
14843.91,1.67
14868.75,2.36
14893.59,2.35
14918.44,1.68
14943.28,0.84
14968.12,0.62
14992.97,0.98
15017.81,1.34
15042.65,1.83
15067.49,1.25
15092.34,1.18
15117.18,3.04
15142.02,5.23
15166.86,5.56
15191.71,4.42
15216.55,3.02
15241.39,1.38
15266.23,-0.13
15291.08,-0.44
15315.92,0.37
15340.76,1.17
15365.60,1.46
15390.45,1.41
15415.29,1.06
15440.13,0.42
15464.97,0.18
15489.82,-0.06
15514.66,-0.05
15539.50,0.46
15564.34,1.52
15589.19,2.76
15614.03,2.81
15638.87,1.28
15663.71,-0.28
15688.56,-0.84
15713.40,-0.96
15738.24,-0.77
15763.08,0.51
15787.93,2.75
15812.77,4.53
15837.61,4.71
15862.46,3.24
15887.30,0.90
15912.14,-1.21
15936.98,-1.69
15961.83,-2.17
15986.67,-2.11
16011.51,-1.81
16036.35,-1.38
16061.20,-0.30
16086.04,1.31
16110.88,2.63
16135.72,3.13
16160.57,2.91
16185.41,2.34
16210.25,1.68
16235.09,1.00
16259.94,0.41
16284.78,0.11
16309.62,-0.20
16334.46,-0.94
16359.31,-1.66
16384.15,-1.59
16408.99,-1.52
16433.84,-0.50
16458.68,0.68
16483.52,1.29
16508.36,1.13
16533.21,0.54
16558.05,-0.03
16582.89,0.00
16607.73,1.11
16632.58,2.68
16657.42,3.56
16682.26,3.58
16707.10,3.25
16731.95,3.07
16756.79,3.29
16781.63,3.35
16806.47,2.46
16831.32,1.26
16856.16,1.23
16881.00,1.19
16905.84,2.30
16930.69,3.21
16955.53,2.90
16980.37,1.73
17005.21,0.58
17030.06,-0.03
17054.90,0.19
17079.74,0.74
17104.58,0.43
17129.43,-0.72
17154.27,-1.52
17179.11,-1.51
17203.96,-1.06
17228.80,-0.45
17253.64,-0.05
17278.48,-0.19
17303.33,-0.72
17328.17,-0.91
17353.01,-1.09
17377.85,-0.85
17402.70,-0.26
17427.54,0.04
17452.38,0.09
17477.22,0.55
17502.07,1.13
17526.91,0.75
17551.75,-0.52
17576.59,-1.63
17601.44,-1.97
17626.28,-1.64
17651.12,-1.03
17675.96,-0.42
17700.81,0.24
17725.65,0.78
17750.49,0.72
17775.33,0.37
17800.18,0.02
17825.02,-0.78
17849.86,-1.06
17874.71,-0.82
17899.55,-0.65
17924.39,-0.70
17949.23,-0.64
17974.07,-0.59
17998.92,-1.04
18023.76,-1.76
18048.60,-2.00
18073.45,-1.56
18098.29,-0.84
18123.13,-0.26
18147.97,-0.12
18172.82,-0.38
18197.66,-0.36
18222.50,0.28
18247.34,0.56
18272.19,0.83
18297.03,0.61
18321.87,-0.31
18346.71,-1.46
18371.56,-2.07
18396.40,-1.67
18421.24,-1.04
18446.08,-1.04
18470.93,-1.16
18495.77,-0.74
18520.61,-0.17
18545.46,0.00
