Size (bp),Intensity
0.58,1274.59
1.00,1057.50
2.00,699.23
2.42,378.79
2.84,181.74
3.26,91.93
3.68,60.06
4.10,51.16
4.52,49.46
4.94,49.32
5.36,49.19
5.79,48.55
6.21,46.78
6.63,43.30
7.05,38.40
7.47,32.79
7.89,26.94
8.31,21.35
8.73,16.57
9.15,12.67
9.57,9.44
9.99,7.04
10.41,6.02
10.83,6.26
11.25,6.56
11.67,6.30
12.09,6.12
12.52,5.93
12.94,5.12
13.36,3.24
13.78,1.48
14.20,1.41
14.62,2.46
15.04,3.93
15.46,7.70
15.88,16.02
16.30,27.53
16.72,37.05
17.14,39.07
17.56,31.97
17.98,19.67
18.40,8.41
18.82,1.84
19.24,0.84
19.67,-0.17
20.09,0.29
20.51,1.17
20.93,1.58
21.35,1.64
21.77,1.47
22.19,0.62
22.61,-1.18
23.03,-2.86
23.45,-3.15
23.87,-2.21
24.29,-1.26
24.71,-1.12
25.13,-1.58
25.55,-2.07
25.97,-2.12
26.39,-1.69
26.82,-1.49
27.24,-1.29
27.66,-1.16
28.08,-1.27
28.50,-1.65
28.92,-1.79
29.34,-0.92
29.76,0.52
30.18,1.00
30.60,-0.48
31.02,-2.95
31.44,-4.63
31.86,-5.33
32.28,-5.98
32.70,-6.35
33.12,-5.37
33.55,-3.38
33.97,-2.57
34.39,-1.75
34.81,-1.12
35.23,-1.46
35.65,-2.45
36.07,-3.24
36.49,-3.33
36.91,-3.41
37.33,-4.07
37.75,-4.82
38.17,-4.84
38.59,-4.01
39.01,-2.78
39.43,-1.72
39.85,-1.29
40.27,-1.92
40.70,-3.34
41.12,-3.90
41.54,-4.46
41.96,-4.45
42.38,-3.51
42.80,-2.54
43.22,-2.17
43.64,-2.26
44.06,-2.41
44.48,-2.61
44.90,-2.90
45.32,-2.80
45.74,-1.78
46.16,-0.46
46.58,-0.22
47.00,-1.26
47.42,-2.29
47.85,-2.42
48.27,-2.29
48.69,-2.38
49.11,-2.48
49.53,-2.31
49.95,-1.43
50.37,-0.71
50.79,-0.66
51.21,-0.37
51.63,1.26
52.05,3.99
52.47,6.43
52.89,7.70
53.31,7.91
53.73,7.41
54.15,6.33
54.58,4.53
55.00,2.37
55.42,0.80
55.84,0.62
56.26,0.44
56.68,1.09
57.10,2.09
57.52,2.91
57.94,3.31
58.36,3.11
58.78,2.22
59.20,0.93
59.62,-0.22
60.04,-0.79
60.46,-0.68
60.88,0.21
61.30,1.63
61.73,2.29
62.15,1.25
62.57,-0.15
62.99,-0.18
63.41,-0.20
63.83,0.61
64.25,0.78
64.67,-0.17
65.09,-1.42
65.51,-2.15
65.93,-2.45
66.35,-2.71
66.77,-2.85
67.19,-2.73
67.61,-2.38
68.03,-1.63
68.45,-0.50
68.88,0.37
69.30,0.48
69.72,0.08
70.14,-0.54
70.56,-0.84
70.98,-1.14
71.40,-1.11
71.82,-0.24
72.24,0.56
72.66,0.55
73.08,-0.02
73.50,-0.53
73.92,-0.65
74.34,-0.52
74.76,-0.22
75.18,0.55
75.61,1.37
76.03,1.11
76.45,0.01
76.87,-0.50
77.29,-0.32
77.71,-0.47
78.13,-0.62
78.55,-1.66
78.97,-2.68
79.39,-2.85
79.81,-1.97
80.23,-0.81
80.65,-0.18
81.07,-0.12
81.49,-0.32
81.91,-0.60
82.33,-0.86
82.76,-0.84
83.18,-0.53
83.60,-0.48
84.02,-0.87
84.44,-1.24
84.86,-1.28
85.28,-1.32
85.70,-1.32
86.12,-1.41
86.54,-1.57
86.96,-1.76
87.38,-1.88
87.80,-1.76
88.22,-1.36
88.64,-1.23
89.06,-2.09
89.48,-3.27
89.91,-3.15
90.33,-1.65
90.75,-0.27
91.17,0.02
91.59,-0.35
92.01,-0.39
92.43,-0.12
92.85,0.14
93.27,0.62
93.69,0.41
94.11,-0.56
94.53,-1.68
94.95,-2.09
95.37,-1.56
95.79,-0.75
96.21,-0.67
96.64,-1.51
97.06,-2.43
97.48,-2.73
97.90,-2.65
98.32,-2.53
98.74,-2.50
99.16,-2.63
99.58,-2.69
100.00,-2.75
101.00,-2.57
101.52,-2.48
102.04,-2.99
102.56,-3.65
103.08,-3.52
103.61,-2.58
104.13,-1.78
104.65,-1.54
105.17,-1.16
105.69,-0.40
106.21,-0.18
106.73,-0.65
107.25,-0.84
107.77,-0.41
108.29,-0.14
108.82,-0.37
109.34,-0.60
109.86,-1.52
110.38,-2.23
110.90,-2.62
111.42,-2.99
111.94,-3.15
112.46,-2.60
112.98,-1.48
113.51,-0.48
114.03,0.03
114.55,0.14
115.07,0.37
115.59,0.97
116.11,1.41
116.63,0.99
117.15,-0.10
117.67,-0.75
118.19,-0.55
118.72,-0.35
119.24,0.39
119.76,0.69
120.28,0.54
120.80,0.11
121.32,-0.40
121.84,-0.38
122.36,0.61
122.88,1.66
123.41,1.46
123.93,0.53
124.45,0.35
124.97,0.87
125.49,1.10
126.01,0.96
126.53,0.75
127.05,0.47
127.57,0.19
128.09,-0.34
128.62,0.15
129.14,1.39
129.66,2.10
130.18,1.77
130.70,1.04
131.22,0.79
131.74,0.95
132.26,0.77
132.78,0.40
133.31,0.58
133.83,0.98
134.35,0.86
134.87,0.39
135.39,0.05
135.91,0.03
136.43,-0.00
136.95,0.38
137.47,1.38
137.99,2.76
138.52,3.58
139.04,3.12
139.56,1.80
140.08,0.58
140.60,0.14
141.12,0.61
141.64,1.77
142.16,3.09
142.68,3.86
143.21,3.91
143.73,3.78
144.25,3.57
144.77,2.84
145.29,2.35
145.81,1.86
146.33,1.61
146.85,2.46
147.37,3.66
147.89,4.30
148.42,4.28
148.94,3.91
149.46,3.35
149.98,2.82
150.50,3.00
151.02,4.33
151.54,6.07
152.06,6.95
152.58,6.87
153.11,6.75
153.63,7.03
154.15,7.11
154.67,7.18
155.19,6.62
155.71,5.71
156.23,5.21
156.75,5.36
157.27,5.86
157.79,6.24
158.32,5.97
158.84,5.40
159.36,5.84
159.88,7.59
160.40,9.24
160.92,9.76
161.44,9.58
161.96,9.35
162.48,9.47
163.01,9.63
163.53,9.80
164.05,9.41
164.57,8.08
165.09,7.02
165.61,6.93
166.13,7.44
166.65,8.65
167.17,10.28
167.69,10.86
168.22,10.08
168.74,9.37
169.26,9.64
169.78,10.54
170.30,11.43
170.82,12.33
171.34,13.37
171.86,13.83
172.38,13.48
172.91,13.13
173.43,12.21
173.95,12.19
174.47,12.91
174.99,13.92
175.51,15.02
176.03,15.77
176.55,15.62
177.07,14.55
177.59,13.35
178.12,13.04
178.64,13.95
179.16,15.71
179.68,17.78
180.20,19.60
180.72,20.71
181.24,21.00
181.76,21.29
182.28,21.86
182.81,22.65
183.33,24.19
183.85,26.93
184.37,29.67
184.89,30.92
185.41,31.36
185.93,32.68
186.45,35.33
186.97,38.46
187.49,41.37
188.02,44.36
188.54,47.52
189.06,50.07
189.58,51.97
190.10,53.01
190.62,54.04
191.14,56.37
191.66,58.38
192.18,59.81
192.71,61.17
193.23,63.29
193.75,66.01
194.27,68.41
194.79,70.36
195.31,72.39
195.83,74.23
196.35,75.62
196.87,77.32
197.39,80.35
197.92,84.48
198.44,88.76
198.96,92.71
199.48,94.54
200.00,96.38
201.00,100.03
201.59,104.00
202.17,108.99
202.76,115.45
203.34,122.21
203.93,127.31
204.51,131.00
205.10,135.43
205.69,141.28
206.27,147.36
206.86,153.19
207.44,159.70
208.03,167.30
208.62,174.98
209.20,181.61
209.79,184.41
210.37,187.21
210.96,192.41
211.54,197.51
212.13,202.66
212.72,208.20
213.30,214.19
213.89,220.61
214.47,227.53
215.06,234.33
215.64,240.49
216.23,246.75
216.82,253.94
217.40,261.65
217.99,269.06
218.57,275.92
219.16,282.46
219.75,285.97
220.33,289.48
220.92,297.57
221.50,305.90
222.09,313.86
222.67,322.33
223.26,332.10
223.85,342.94
224.43,354.25
225.02,365.35
225.60,375.36
226.19,383.66
226.78,390.71
227.36,397.50
227.95,403.93
228.53,409.62
229.12,415.75
229.70,423.45
230.29,427.70
230.88,431.95
231.46,440.64
232.05,450.27
232.63,461.08
233.22,472.07
233.80,482.12
234.39,490.91
234.98,499.47
235.56,509.14
236.15,519.72
236.73,530.08
237.32,539.65
237.91,548.81
238.49,558.10
239.08,566.98
239.66,574.38
240.25,577.32
240.83,580.26
241.42,585.28
242.01,589.92
242.59,595.24
243.18,602.70
243.76,612.57
244.35,623.56
244.93,634.33
245.52,644.49
246.11,653.79
246.69,661.58
247.28,667.85
247.86,673.50
248.45,678.91
249.04,683.62
249.62,687.61
250.21,689.62
250.79,691.64
251.38,696.16
251.96,701.06
252.55,706.05
253.14,710.54
253.72,714.28
254.31,718.10
254.89,722.57
255.48,726.77
256.07,729.46
256.65,730.64
257.24,731.27
257.82,732.38
258.41,734.68
258.99,738.85
259.58,744.96
260.17,751.59
260.75,754.38
261.34,757.17
261.92,761.60
262.51,764.73
263.09,765.30
263.68,762.76
264.27,758.45
264.85,753.88
265.44,748.79
266.02,742.31
266.61,735.40
267.20,730.20
267.78,727.61
268.37,726.96
268.95,727.75
269.54,730.47
270.12,734.68
270.71,736.46
271.30,738.25
271.88,739.92
272.47,739.63
273.05,737.34
273.64,733.82
274.22,729.96
274.81,725.81
275.40,721.47
275.98,717.18
276.57,713.17
277.15,710.60
277.74,710.23
278.33,710.72
278.91,710.65
279.50,710.45
280.08,710.74
280.67,710.74
281.25,710.74
281.84,709.54
282.43,707.17
283.01,703.57
283.60,697.97
284.18,689.96
284.77,680.23
285.36,670.51
285.94,662.68
286.53,657.14
287.11,652.94
287.70,649.07
288.28,644.76
288.87,640.11
289.46,636.88
290.04,636.18
290.63,636.14
291.21,635.35
291.80,634.55
292.38,631.42
292.97,627.28
293.56,622.41
294.14,617.69
294.73,613.91
295.31,611.29
295.90,609.95
296.49,609.41
297.07,608.45
297.66,606.63
298.24,604.32
298.83,601.67
299.41,598.83
300.00,595.76
301.00,592.34
301.70,591.05
302.39,589.75
303.09,589.07
303.79,589.23
304.49,588.66
305.18,587.01
305.88,584.78
306.58,582.60
307.27,580.68
307.97,579.31
308.67,578.90
309.37,578.57
310.06,577.13
310.76,575.49
311.46,575.68
312.15,577.19
312.85,576.99
313.55,575.43
314.25,573.87
314.94,569.55
315.64,565.29
316.34,561.34
317.04,558.78
317.73,558.02
318.43,556.89
319.13,553.16
319.82,547.38
320.52,541.16
321.22,534.66
321.92,527.42
322.61,519.70
323.31,512.33
324.01,505.92
324.70,500.70
325.40,496.15
326.10,493.38
326.80,490.61
327.49,483.03
328.19,474.57
328.89,467.00
329.58,460.69
330.28,454.85
330.98,448.56
331.68,441.60
332.37,434.57
333.07,427.92
333.77,421.38
334.46,414.93
335.16,409.67
335.86,406.49
336.56,404.32
337.25,401.67
337.95,400.23
338.65,398.79
339.35,396.34
340.04,393.63
340.74,389.71
341.44,385.06
342.13,380.64
342.83,376.29
343.53,371.72
344.23,368.21
344.92,367.32
345.62,368.70
346.32,370.27
347.01,370.29
347.71,368.92
348.41,367.46
349.11,366.37
349.80,365.83
350.50,365.30
351.20,363.98
351.89,361.56
352.59,357.08
353.29,351.41
353.99,346.37
354.68,342.21
355.38,338.40
356.08,335.94
356.77,336.15
357.47,338.32
358.17,340.98
358.87,343.55
359.56,344.82
360.26,343.03
360.96,338.54
361.65,333.31
362.35,330.81
363.05,328.31
363.75,323.49
364.44,318.92
365.14,315.07
365.84,312.56
366.54,311.47
367.23,310.80
367.93,309.31
368.63,306.58
369.32,303.24
370.02,300.34
370.72,297.91
371.42,295.12
372.11,292.59
372.81,291.83
373.51,292.32
374.20,292.19
374.90,292.06
375.60,290.30
376.30,288.09
376.99,286.39
377.69,284.82
378.39,282.60
379.08,279.64
379.78,276.58
380.48,274.49
381.18,273.52
381.87,272.69
382.57,271.48
383.27,269.80
383.96,267.52
384.66,265.20
385.36,263.85
386.06,263.75
386.75,263.65
387.45,263.92
388.15,264.08
388.85,264.23
389.54,264.70
390.24,265.27
390.94,265.63
391.63,266.23
392.33,267.00
393.03,266.90
393.73,265.64
394.42,263.77
395.12,261.10
395.82,257.17
396.51,252.88
397.21,249.95
397.91,248.45
398.61,247.60
399.30,246.74
400.00,244.14
401.00,241.67
401.72,240.23
402.45,239.76
403.17,239.74
403.89,239.54
404.61,239.36
405.34,239.85
406.06,240.74
406.78,241.23
407.50,241.13
408.23,240.68
408.95,240.22
409.67,239.97
410.39,239.73
411.12,239.62
411.84,239.50
412.56,240.30
413.28,242.97
414.01,246.67
414.73,249.48
415.45,249.94
416.18,248.19
416.90,245.26
417.62,241.55
418.34,236.79
419.07,230.85
419.79,224.20
420.51,218.02
421.23,213.46
421.96,210.28
422.68,207.10
423.40,203.45
424.12,201.87
424.85,200.28
425.57,198.26
426.29,196.95
427.01,195.66
427.74,194.15
428.46,192.73
429.18,191.49
429.91,190.26
430.63,189.64
431.35,189.94
432.07,189.99
432.80,189.14
433.52,188.47
434.24,188.62
434.96,188.52
435.69,187.15
436.41,185.97
437.13,184.79
437.85,182.30
438.58,180.27
439.30,178.79
440.02,177.22
440.74,175.16
441.47,173.42
442.19,172.71
442.91,172.65
443.64,172.73
444.36,172.66
445.08,171.98
445.80,170.39
446.53,168.07
447.25,165.85
447.97,164.78
448.69,164.71
449.42,164.63
450.14,164.32
450.86,163.71
451.58,163.23
452.31,162.79
453.03,162.13
453.75,161.43
454.47,161.14
455.20,161.35
455.92,161.76
456.64,161.97
457.36,161.68
458.09,160.99
458.81,160.36
459.53,159.91
460.26,159.48
460.98,159.25
461.70,159.41
462.42,159.57
463.15,160.22
463.87,160.69
464.59,160.49
465.31,159.11
466.04,156.93
466.76,155.32
467.48,155.11
468.20,156.02
468.93,157.34
469.65,158.12
470.37,157.60
471.09,156.01
471.82,154.36
472.54,152.68
473.26,150.12
473.99,148.48
474.71,146.85
475.43,143.76
476.15,141.23
476.88,139.39
477.60,138.37
478.32,138.03
479.04,138.18
479.77,138.56
480.49,138.75
481.21,138.41
481.93,137.79
482.66,137.53
483.38,137.55
484.10,137.12
484.82,136.11
485.55,134.90
486.27,134.06
486.99,133.21
487.72,130.56
488.44,127.43
489.16,124.47
489.88,121.41
490.61,118.46
491.33,116.83
492.05,116.49
492.77,115.95
493.50,114.78
494.22,114.11
494.94,114.68
495.66,115.91
496.39,116.66
497.11,116.64
497.83,116.55
498.55,116.99
499.28,117.42
500.00,117.86
501.00,118.55
502.01,118.63
503.02,118.48
504.03,118.30
505.04,117.31
506.05,115.22
507.06,112.94
508.07,111.43
509.08,110.98
510.09,111.00
511.10,110.37
512.11,108.70
513.12,106.99
514.13,106.39
515.14,106.56
516.15,106.46
517.16,106.35
518.17,105.92
519.18,106.22
520.19,106.69
521.20,106.12
522.21,104.66
523.22,103.06
524.23,101.62
525.24,100.35
526.26,98.81
527.27,97.16
528.28,96.47
529.29,96.68
530.30,96.45
531.31,95.46
532.32,94.37
533.33,94.03
534.34,93.69
535.35,93.60
536.36,93.90
537.37,94.31
538.38,94.60
539.39,94.11
540.40,92.58
541.41,90.90
542.42,89.81
543.43,89.04
544.44,88.10
545.45,87.31
546.46,87.07
547.47,86.95
548.48,86.45
549.49,85.52
550.50,84.23
551.51,83.75
552.52,83.27
553.53,83.43
554.54,84.37
555.55,85.17
556.56,85.38
557.57,85.09
558.58,84.57
559.59,83.85
560.60,83.06
561.61,82.64
562.62,82.79
563.63,83.12
564.64,83.43
565.65,83.96
566.66,84.69
567.67,85.08
568.68,85.09
569.69,85.09
570.70,85.00
571.71,84.80
572.72,84.40
573.73,83.78
574.74,83.07
575.76,82.65
576.77,82.36
577.78,81.52
578.79,80.67
579.80,81.00
580.81,81.87
581.82,81.44
582.83,79.54
583.84,77.37
584.85,75.55
585.86,74.76
586.87,73.97
587.88,72.71
588.89,72.16
589.90,72.27
590.91,72.26
591.92,71.55
592.93,70.55
593.94,69.98
594.95,69.55
595.96,68.56
596.97,67.66
597.98,68.10
598.99,69.56
600.00,70.67
601.00,71.01
602.18,71.07
603.36,71.11
604.54,70.93
605.71,70.74
606.89,69.61
608.07,68.08
609.25,67.30
610.43,67.83
611.61,68.57
612.79,68.18
613.96,66.81
615.14,65.50
616.32,64.54
617.50,63.41
618.68,62.16
619.86,61.82
621.04,62.84
622.21,63.94
623.39,64.01
624.57,64.12
625.75,64.22
626.93,65.77
628.11,67.20
629.29,66.52
630.46,64.46
631.64,63.34
632.82,63.50
634.00,63.13
635.18,61.69
636.36,60.72
637.54,60.82
638.71,60.64
639.89,59.33
641.07,57.65
642.25,56.73
643.43,56.83
644.61,57.07
645.79,57.31
646.96,57.63
648.14,57.77
649.32,57.90
650.50,58.22
651.68,58.62
652.86,58.15
654.04,56.07
655.21,53.46
656.39,52.39
657.57,53.19
658.75,54.53
659.93,55.28
661.11,55.07
662.29,54.18
663.46,53.70
664.64,54.15
665.82,54.41
667.00,54.67
668.18,54.50
669.36,53.71
670.54,52.67
671.71,51.89
672.89,51.65
674.07,52.00
675.25,53.02
676.43,53.71
677.61,52.59
678.79,50.19
679.96,48.20
681.14,46.83
682.32,45.69
683.50,45.31
684.68,45.86
685.86,46.25
687.04,46.63
688.21,47.18
689.39,47.44
690.57,47.30
691.75,46.82
692.93,45.83
694.11,44.23
695.29,42.87
696.46,42.75
697.64,43.57
698.82,44.09
700.00,43.54
701.00,42.06
702.98,40.20
704.96,38.58
706.94,37.76
708.92,37.76
710.90,37.75
712.88,37.94
714.86,38.06
716.84,38.28
718.82,38.38
720.80,38.12
722.78,37.86
724.76,38.01
726.74,38.70
728.72,39.38
730.70,38.92
732.68,37.36
734.66,36.14
736.64,36.07
738.62,36.45
740.60,36.05
742.58,34.75
744.56,34.54
746.54,34.34
748.52,35.88
750.50,37.03
752.48,35.52
754.46,33.02
756.44,32.26
758.42,32.94
760.40,33.18
762.38,32.42
764.36,31.35
766.34,30.85
768.32,31.22
770.30,31.63
772.28,31.26
774.26,30.44
776.24,30.01
778.22,30.16
780.20,30.31
782.18,30.94
784.16,30.90
786.14,29.64
788.12,27.95
790.10,26.82
792.08,26.36
794.06,26.69
796.04,28.02
798.02,29.70
800.00,30.78
801.00,31.09
803.36,30.67
805.71,29.61
808.07,28.42
810.43,27.50
812.79,27.28
815.14,27.05
817.50,27.32
819.86,28.11
822.21,28.66
824.57,28.45
826.93,27.55
829.29,26.38
831.64,25.26
834.00,24.49
836.36,24.49
838.71,25.14
841.07,25.74
843.43,26.18
845.79,26.67
848.14,26.88
850.50,26.51
852.86,25.53
855.21,24.57
857.57,23.62
859.93,20.87
862.29,18.67
864.64,18.38
867.00,19.78
869.36,21.36
871.71,21.71
874.07,20.61
876.43,19.25
878.79,18.85
881.14,19.01
883.50,18.82
885.86,18.48
888.21,18.44
890.57,18.38
892.93,18.04
895.29,17.83
897.64,17.63
900.00,17.43
901.00,17.56
904.67,17.86
908.33,18.01
912.00,17.70
915.67,16.91
919.33,15.70
923.00,14.08
926.67,12.60
930.33,12.09
934.00,12.40
937.67,12.61
941.33,12.12
945.00,11.03
948.67,10.11
952.33,10.15
956.00,10.18
959.67,11.23
963.33,12.74
967.00,14.17
970.67,14.75
974.33,13.82
978.00,11.84
981.67,10.31
985.33,10.37
989.00,11.76
992.67,13.10
996.33,13.07
1000.00,12.00
1001.00,11.30
1006.10,11.49
1011.21,11.95
1016.31,12.04
1021.41,11.74
1026.51,11.45
1031.62,10.38
1036.72,9.29
1041.82,8.37
1046.92,7.83
1052.03,7.79
1057.13,7.51
1062.23,6.52
1067.33,5.90
1072.44,6.50
1077.54,7.25
1082.64,7.23
1087.74,7.09
1092.85,7.13
1097.95,6.70
1103.05,6.25
1108.15,6.41
1113.26,6.57
1118.36,7.18
1123.46,7.75
1128.56,8.24
1133.67,7.84
1138.77,6.35
1143.87,4.99
1148.97,4.64
1154.08,4.86
1159.18,5.01
1164.28,4.95
1169.38,4.89
1174.49,5.02
1179.59,5.20
1184.69,5.05
1189.79,4.53
1194.90,4.08
1200.00,3.64
1201.00,2.32
1210.06,1.25
1219.12,1.28
1228.18,2.12
1237.24,2.92
1246.30,3.31
1255.36,3.30
1264.42,3.25
1273.48,3.49
1282.55,3.74
1291.61,3.61
1300.67,3.13
1309.73,2.31
1318.79,1.25
1327.85,0.79
1336.91,1.17
1345.97,1.31
1355.03,1.45
1364.09,1.27
1373.15,0.92
1382.21,0.61
1391.27,0.76
1400.33,0.87
1409.39,-0.03
1418.45,-0.90
1427.52,-0.14
1436.58,1.38
1445.64,1.96
1454.70,1.67
1463.76,1.63
1472.82,2.10
1481.88,2.45
1490.94,2.47
1500.00,2.48
1501.00,2.49
1510.24,2.66
1519.48,3.12
1528.72,4.01
1537.96,4.78
1547.20,4.52
1556.44,3.23
1565.69,1.96
1574.93,1.51
1584.17,1.84
1593.41,2.89
1602.65,4.43
1611.89,5.00
1621.13,3.68
1630.37,1.95
1639.61,1.22
1648.85,1.15
1658.09,1.08
1667.33,1.37
1676.57,2.61
1685.81,4.63
1695.06,6.40
1704.30,6.64
1713.54,5.12
1722.78,3.18
1732.02,2.02
1741.26,1.70
1750.50,2.09
1759.74,2.83
1768.98,3.17
1778.22,2.69
1787.46,1.52
1796.70,0.43
1805.94,0.41
1815.19,0.79
1824.43,1.18
1833.67,1.70
1842.91,2.22
1852.15,3.74
1861.39,5.68
1870.63,6.10
1879.87,4.38
1889.11,2.47
1898.35,2.30
1907.59,3.35
1916.83,3.94
1926.07,3.71
1935.31,3.31
1944.56,2.83
1953.80,1.82
1963.04,0.17
1972.28,-0.59
1981.52,-1.34
1990.76,-1.59
2000.00,-0.43
2001.00,1.05
2018.22,1.93
2035.45,2.45
2052.67,3.05
2069.90,3.52
2087.12,3.48
2104.34,2.85
2121.57,2.06
2138.79,1.73
2156.02,1.88
2173.24,1.77
2190.47,0.78
2207.69,-0.67
2224.91,-0.90
2242.14,-1.13
2259.36,-0.06
2276.59,1.40
2293.81,2.57
2311.03,4.17
2328.26,6.19
2345.48,7.40
2362.71,7.22
2379.93,6.34
2397.16,5.47
2414.38,4.69
2431.60,4.06
2448.83,3.92
2466.05,4.24
2483.28,4.31
2500.50,3.81
2517.72,3.19
2534.95,3.02
2552.17,2.85
2569.40,3.11
2586.62,4.18
2603.84,5.42
2621.07,5.72
2638.29,4.96
2655.52,4.11
2672.74,4.16
2689.97,5.34
2707.19,6.67
2724.41,6.85
2741.64,5.91
2758.86,5.00
2776.09,4.58
2793.31,4.42
2810.53,4.39
2827.76,4.42
2844.98,4.44
2862.21,4.35
2879.43,4.27
2896.66,4.51
2913.88,4.79
2931.10,4.77
2948.33,4.85
2965.55,5.45
2982.78,6.00
3000.00,5.65
3001.00,4.54
3025.99,3.77
3050.98,3.57
3075.98,3.00
3100.97,1.94
3125.96,1.45
3150.95,1.58
3175.94,1.72
3200.93,2.08
3225.93,2.32
3250.92,2.55
3275.91,2.80
3300.90,3.11
3325.89,3.36
3350.88,3.54
3375.87,3.64
3400.87,3.71
3425.86,4.23
3450.85,5.47
3475.84,6.68
3500.83,7.02
3525.82,6.40
3550.82,5.10
3575.81,3.95
3600.80,3.86
3625.79,3.78
3650.78,3.96
3675.77,3.56
3700.77,3.23
3725.76,3.79
3750.75,4.70
3775.74,5.24
3800.73,5.26
3825.73,4.83
3850.72,3.89
3875.71,2.63
3900.70,2.03
3925.69,3.00
3950.68,4.82
3975.68,5.76
4000.67,5.07
4025.66,4.22
4050.65,3.37
4075.64,1.95
4100.63,1.83
4125.62,2.79
4150.62,3.55
4175.61,3.79
4200.60,4.67
4225.59,6.31
4250.58,7.12
4275.58,6.33
4300.57,4.96
4325.56,3.98
4350.55,3.56
4375.54,3.49
4400.53,3.31
4425.52,3.01
4450.52,3.19
4475.51,3.36
4500.50,4.65
4525.49,5.89
4550.48,5.97
4575.48,5.23
4600.47,4.69
4625.46,4.38
4650.45,4.12
4675.44,4.44
4700.43,4.99
4725.42,4.64
4750.42,3.52
4775.41,2.45
4800.40,1.64
4825.39,1.32
4850.38,1.56
4875.37,1.86
4900.37,1.93
4925.36,2.00
4950.35,2.45
4975.34,3.36
5000.33,4.04
5025.33,4.17
5050.32,5.05
5075.31,7.80
5100.30,11.06
5125.29,12.46
5150.28,11.74
5175.27,10.37
5200.27,9.16
5225.26,8.13
5250.25,7.20
5275.24,6.10
5300.23,5.17
5325.23,5.27
5350.22,5.37
5375.21,6.65
5400.20,7.87
5425.19,8.45
5450.18,8.49
5475.17,8.29
5500.17,8.41
5525.16,9.19
5550.15,10.31
5575.14,11.16
5600.13,11.43
5625.12,11.15
5650.12,10.88
5675.11,11.68
5700.10,15.64
5725.09,28.16
5750.08,45.02
5775.08,61.88
5800.07,138.42
5825.06,282.65
5850.05,510.64
5875.04,818.05
5900.03,1174.51
5925.02,1527.40
5950.02,1813.28
5975.01,1971.94
6000.00,1963.62
6024.79,1787.19
6049.64,1485.77
6074.48,1130.03
6099.32,788.97
6124.16,507.73
6149.01,302.51
6173.85,168.71
6198.69,129.93
6223.53,91.15
6248.38,51.11
6273.22,31.60
6298.06,21.62
6322.90,16.47
6347.75,14.38
6372.59,13.82
6397.43,13.61
6422.27,13.49
6447.12,13.70
6471.96,14.31
6496.80,14.79
6521.65,14.54
6546.49,14.00
6571.33,13.65
6596.17,13.12
6621.02,12.63
6645.86,12.14
6670.70,10.76
6695.54,9.28
6720.39,8.57
6745.23,8.90
6770.07,9.61
6794.91,10.19
6819.76,9.95
6844.60,8.13
6869.44,5.69
6894.28,4.50
6919.13,4.85
6943.97,5.66
6968.81,6.12
6993.65,6.38
7018.50,6.81
7043.34,6.86
7068.18,6.92
7093.02,6.08
7117.87,4.73
7142.71,3.78
7167.55,3.52
7192.39,3.59
7217.24,3.59
7242.08,3.41
7266.92,3.15
7291.77,3.14
7316.61,3.44
7341.45,3.33
7366.29,2.22
7391.14,0.98
7415.98,0.55
7440.82,0.27
7465.66,-0.48
7490.51,-0.53
7515.35,-0.58
7540.19,0.83
7565.03,2.70
7589.88,3.56
7614.72,3.32
7639.56,2.67
7664.40,2.02
7689.25,1.66
7714.09,1.84
7738.93,1.97
7763.77,1.23
7788.62,-0.19
7813.46,-1.50
7838.30,-2.43
7863.14,-2.83
7887.99,-2.18
7912.83,-1.47
7937.67,-0.76
7962.51,0.14
7987.36,0.05
8012.20,-0.07
8037.04,0.20
8061.89,0.02
8086.73,-0.80
8111.57,-1.05
8136.41,-0.45
8161.26,-0.53
8186.10,-2.06
8210.94,-3.70
8235.78,-3.88
8260.63,-2.70
8285.47,-1.60
8310.31,-1.66
8335.15,-2.12
8360.00,-2.57
8384.84,-3.26
8409.68,-3.00
8434.52,-1.81
8459.37,-0.02
8484.21,1.56
8509.05,1.76
8533.89,0.36
8558.74,-1.12
8583.58,-1.24
8608.42,-0.10
8633.26,1.44
8658.11,2.51
8682.95,2.59
8707.79,1.80
8732.63,0.76
8757.48,0.28
8782.32,0.45
8807.16,0.63
8832.00,1.12
8856.85,0.92
8881.69,-0.09
8906.53,-1.29
8931.37,-1.69
8956.22,-0.65
8981.06,1.26
9005.90,2.47
9030.75,2.43
9055.59,2.29
9080.43,2.47
9105.27,2.18
9130.12,1.73
9154.96,2.03
9179.80,2.65
9204.64,2.59
9229.49,2.53
9254.33,1.71
9279.17,1.28
9304.01,1.86
9328.86,3.08
9353.70,4.48
9378.54,5.19
9403.38,4.15
9428.23,2.18
9453.07,1.25
9477.91,1.38
9502.75,1.26
9527.60,0.58
9552.44,-0.35
9577.28,-1.42
9602.12,-2.11
9626.97,-1.92
9651.81,-1.74
9676.65,-0.52
9701.50,0.90
9726.34,1.88
9751.18,1.87
9776.02,0.77
9800.87,-0.46
9825.71,-0.47
9850.55,0.69
9875.39,1.53
9900.24,1.30
9925.08,0.74
9949.92,0.56
9974.76,0.80
9999.61,1.40
10024.45,2.26
10049.29,2.88
10074.13,2.76
10098.98,2.65
10123.82,1.69
10148.66,0.60
10173.50,-0.01
10198.35,0.19
10223.19,0.49
10248.03,-0.18
10272.87,-1.41
10297.72,-1.65
10322.56,-0.61
10347.40,0.33
10372.25,0.30
10397.09,-0.16
10421.93,-0.56
10446.77,-0.87
10471.62,-0.60
10496.46,0.01
10521.30,0.61
10546.14,1.85
10570.99,2.09
10595.83,1.86
10620.67,2.40
10645.51,3.56
10670.36,3.86
10695.20,2.54
10720.04,0.39
10744.88,-1.46
10769.73,-2.52
10794.57,-2.62
10819.41,-1.70
10844.25,-0.27
10869.10,0.49
10893.94,0.06
10918.78,-0.42
10943.62,-0.89
10968.47,-1.56
10993.31,-1.72
11018.15,-1.49
11043.00,-0.96
11067.84,-0.30
11092.68,0.38
11117.52,0.82
11142.37,0.81
11167.21,0.80
11192.05,1.15
11216.89,1.14
11241.74,0.30
11266.58,-0.84
11291.42,-1.78
11316.26,-2.17
11341.11,-1.54
11365.95,-0.75
11390.79,0.05
11415.63,1.94
11440.48,3.17
11465.32,3.03
11490.16,2.18
11515.00,1.84
11539.85,2.28
11564.69,3.05
11589.53,3.82
11614.37,4.44
11639.22,4.82
11664.06,4.92
11688.90,4.60
11713.74,3.84
11738.59,3.23
11763.43,3.46
11788.27,3.79
11813.12,4.12
11837.96,4.30
11862.80,4.04
11887.64,4.09
11912.49,4.48
11937.33,4.71
11962.17,4.78
11987.01,4.83
12011.86,4.60
12036.70,4.06
12061.54,3.49
12086.38,3.10
12111.23,3.22
12136.07,3.96
12160.91,4.77
12185.75,4.94
12210.60,4.56
12235.44,4.18
12260.28,2.73
12285.12,1.25
12309.97,0.49
12334.81,0.67
12359.65,1.44
12384.49,2.43
12409.34,3.42
12434.18,4.00
12459.02,3.80
12483.86,3.39
12508.71,3.50
12533.55,3.52
12558.39,2.62
12583.24,1.42
12608.08,1.07
12632.92,1.75
12657.76,2.09
12682.61,2.43
12707.45,2.06
12732.29,1.00
12757.13,0.46
12781.98,1.12
12806.82,2.95
12831.66,5.27
12856.50,6.48
12881.35,5.16
12906.19,2.21
12931.03,0.32
12955.87,0.52
12980.72,1.12
13005.56,0.72
13030.40,0.05
13055.24,0.35
13080.09,0.98
13104.93,1.61
13129.77,2.85
13154.61,3.24
13179.46,2.70
13204.30,1.71
13229.14,1.10
13253.98,1.55
13278.83,2.43
13303.67,2.57
13328.51,2.14
13353.35,2.02
13378.20,2.25
13403.04,2.52
13427.88,2.79
13452.73,2.72
13477.57,2.28
13502.41,2.30
13527.25,2.32
13552.10,3.00
13576.94,3.43
13601.78,3.15
13626.62,2.50
13651.47,2.00
13676.31,2.10
13701.15,2.64
13725.99,2.74
13750.84,1.59
13775.68,-0.37
13800.52,-1.46
13825.36,-0.85
13850.21,0.46
13875.05,1.34
13899.89,1.65
13924.73,1.67
13949.58,1.62
13974.42,1.56
13999.26,1.25
14024.10,0.86
14048.95,0.71
14073.79,0.73
14098.63,0.58
14123.47,0.31
14148.32,0.27
14173.16,0.57
14198.00,1.03
14222.85,1.49
14247.69,1.93
14272.53,2.20
14297.37,1.96
14322.22,1.27
14347.06,0.67
14371.90,0.54
14396.74,0.41
14421.59,0.48
14446.43,0.70
14471.27,0.74
14496.11,0.45
14520.96,0.19
14545.80,0.57
14570.64,1.42
14595.48,1.56
14620.33,0.76
14645.17,0.31
14670.01,0.78
14694.85,1.10
14719.70,0.65
14744.54,0.21
14769.38,0.21
14794.22,0.22
14819.07,0.23
14843.91,0.14
14868.75,0.07
14893.59,-0.27
14918.44,-0.87
14943.28,-1.19
14968.12,-0.86
14992.97,0.18
15017.81,1.39
15042.65,1.63
15067.49,0.66
15092.34,-0.32
15117.18,-0.40
15142.02,0.12
15166.86,0.51
15191.71,0.52
15216.55,0.59
15241.39,0.90
15266.23,1.22
15291.08,2.36
15315.92,3.60
15340.76,4.48
15365.60,4.90
15390.45,5.12
15415.29,5.31
15440.13,5.54
15464.97,6.07
15489.82,6.77
15514.66,6.77
15539.50,5.79
15564.34,4.41
15589.19,3.04
15614.03,2.08
15638.87,2.13
15663.71,2.51
15688.56,2.90
15713.40,3.36
15738.24,3.30
15763.08,3.12
15787.93,2.69
15812.77,1.75
15837.61,0.70
15862.46,0.27
15887.30,0.72
15912.14,1.39
15936.98,1.27
15961.83,0.40
15986.67,0.17
16011.51,1.52
16036.35,3.30
16061.20,3.78
16086.04,3.22
16110.88,2.66
16135.72,0.95
16160.57,-0.11
16185.41,0.04
16210.25,0.63
16235.09,0.70
16259.94,0.41
16284.78,0.65
16309.62,1.69
16334.46,2.60
16359.31,2.26
16384.15,0.91
16408.99,-0.23
16433.84,-0.47
16458.68,0.11
16483.52,1.09
16508.36,1.65
16533.21,1.48
16558.05,1.30
16582.89,0.52
16607.73,0.31
16632.58,0.66
16657.42,0.71
16682.26,0.33
16707.10,-0.14
16731.95,-0.66
16756.79,-1.02
16781.63,-0.90
16806.47,-0.71
16831.32,-0.80
16856.16,-0.73
16881.00,-0.05
16905.84,0.97
16930.69,1.73
16955.53,1.78
16980.37,1.84
17005.21,1.53
17030.06,1.45
17054.90,1.90
17079.74,2.49
17104.58,2.48
17129.43,2.00
17154.27,1.91
17179.11,2.12
17203.96,1.59
17228.80,0.29
17253.64,-0.50
17278.48,0.19
17303.33,2.01
17328.17,3.87
17353.01,4.83
17377.85,4.67
17402.70,4.51
17427.54,3.37
17452.38,2.61
17477.22,2.84
17502.07,3.00
17526.91,2.13
17551.75,0.90
17576.59,0.27
17601.44,0.36
17626.28,0.71
17651.12,0.80
17675.96,0.77
17700.81,0.93
17725.65,1.22
17750.49,1.68
17775.33,2.12
17800.18,2.08
17825.02,2.09
17849.86,2.10
17874.71,3.31
17899.55,5.02
17924.39,5.01
17949.23,2.86
17974.07,0.77
17998.92,0.34
18023.76,0.73
18048.60,0.83
18073.45,0.78
18098.29,0.97
18123.13,1.30
18147.97,1.48
18172.82,1.56
18197.66,1.85
18222.50,2.04
18247.34,1.78
18272.19,1.52
18297.03,0.49
18321.87,-0.06
18346.71,0.33
18371.56,1.12
18396.40,1.56
18421.24,1.38
18446.08,0.59
18470.93,0.00
18495.77,0.00
18520.61,0.00
18545.46,0.00
