Size (bp),Intensity
0.58,1431.48
1.00,1159.20
2.00,750.79
2.42,404.02
2.84,200.19
3.26,110.80
3.68,78.97
4.10,73.62
4.52,68.26
4.94,63.87
5.36,61.00
5.79,58.22
6.21,55.19
6.63,51.67
7.05,47.22
7.47,41.43
7.89,34.37
8.31,26.93
8.73,20.68
9.15,16.61
9.57,15.46
9.99,14.31
10.41,13.07
10.83,12.43
11.25,11.96
11.67,11.52
12.09,11.17
12.52,10.56
12.94,9.59
13.36,8.89
13.78,8.75
14.20,8.38
14.62,7.38
15.04,7.59
15.46,7.79
15.88,12.92
16.30,23.42
16.72,35.44
17.14,42.83
17.56,41.46
17.98,32.57
18.40,21.59
18.82,13.23
19.24,8.87
19.67,7.41
20.09,6.92
20.51,6.57
20.93,6.22
21.35,5.38
21.77,4.79
22.19,4.07
22.61,2.81
23.03,1.72
23.45,1.55
23.87,1.63
24.29,1.07
24.71,-0.07
25.13,-1.35
25.55,-2.15
25.97,-2.12
26.39,-2.10
26.82,-1.92
27.24,-2.34
27.66,-2.81
28.08,-2.39
28.50,-1.03
28.92,0.43
29.34,0.90
29.76,-0.14
30.18,-1.95
30.60,-3.05
31.02,-2.76
31.44,-2.14
31.86,-1.51
32.28,0.07
32.70,1.31
33.12,1.70
33.55,1.40
33.97,0.94
34.39,0.56
34.81,0.24
35.23,-0.24
35.65,-0.82
36.07,-1.07
36.49,-0.99
36.91,-0.96
37.33,-0.92
37.75,-0.72
38.17,-0.17
38.59,0.36
39.01,0.63
39.43,0.77
39.85,0.68
40.27,0.15
40.70,-0.50
41.12,-0.97
41.54,-1.36
41.96,-1.56
42.38,-1.42
42.80,-1.29
43.22,-0.60
43.64,0.32
44.06,0.97
44.48,0.62
44.90,-0.40
45.32,-0.89
45.74,-0.12
46.16,1.40
46.58,2.63
47.00,3.06
47.42,2.87
47.85,2.70
48.27,2.53
48.69,2.22
49.11,1.75
49.53,1.35
49.95,1.81
50.37,3.06
50.79,4.22
51.21,5.28
51.63,6.55
52.05,7.24
52.47,6.97
52.89,7.15
53.31,8.31
53.73,9.48
54.15,14.10
54.58,19.11
55.00,21.75
55.42,20.61
55.84,16.74
56.26,12.72
56.68,10.27
57.10,8.96
57.52,7.48
57.94,5.51
58.36,4.31
58.78,4.52
59.20,4.74
59.62,5.44
60.04,5.05
60.46,4.76
60.88,6.09
61.30,7.97
61.73,8.70
62.15,8.55
62.57,8.14
62.99,7.36
63.41,6.76
63.83,7.43
64.25,8.29
64.67,9.15
65.09,10.53
65.51,10.91
65.93,10.38
66.35,8.85
66.77,6.71
67.19,5.19
67.61,5.09
68.03,6.07
68.45,7.34
68.88,8.05
69.30,7.71
69.72,7.12
70.14,6.54
70.56,5.19
70.98,4.23
71.40,3.74
71.82,3.45
72.24,3.17
72.66,3.27
73.08,3.75
73.50,3.47
73.92,1.73
74.34,0.01
74.76,0.20
75.18,1.68
75.61,2.01
76.03,2.34
76.45,1.83
76.87,1.69
77.29,2.32
77.71,2.44
78.13,1.96
78.55,2.25
78.97,3.61
79.39,4.92
79.81,5.14
80.23,4.13
80.65,2.72
81.07,2.23
81.49,1.73
81.91,1.04
82.33,0.65
82.76,0.98
83.18,1.83
83.60,2.35
84.02,1.94
84.44,1.10
84.86,1.24
85.28,2.82
85.70,4.64
86.12,5.44
86.54,5.13
86.96,4.81
87.38,3.25
87.80,1.97
88.22,1.74
88.64,2.24
89.06,3.06
89.48,3.87
89.91,4.02
90.33,3.30
90.75,2.52
91.17,2.49
91.59,3.15
92.01,3.34
92.43,3.53
92.85,2.97
93.27,1.95
93.69,0.94
94.11,-0.14
94.53,-0.92
94.95,-0.98
95.37,-0.57
95.79,0.04
96.21,1.01
96.64,2.42
97.06,3.83
97.48,4.15
97.90,4.47
98.32,4.29
98.74,4.27
99.16,4.85
99.58,5.06
100.00,4.47
101.00,4.06
101.52,4.11
102.04,3.49
102.56,2.02
103.08,1.32
103.61,2.32
104.13,3.03
104.65,3.73
105.17,4.05
105.69,3.52
106.21,3.11
106.73,3.04
107.25,2.80
107.77,2.32
108.29,2.17
108.82,2.31
109.34,1.98
109.86,1.33
110.38,1.46
110.90,2.16
111.42,2.86
111.94,4.90
112.46,6.31
112.98,6.20
113.51,5.08
114.03,4.45
114.55,5.03
115.07,6.02
115.59,6.47
116.11,6.30
116.63,5.98
117.15,6.18
117.67,6.56
118.19,6.94
118.72,7.19
119.24,6.42
119.76,5.24
120.28,4.19
120.80,3.62
121.32,3.54
121.84,3.47
122.36,3.20
122.88,3.20
123.41,3.67
123.93,4.32
124.45,4.69
124.97,5.07
125.49,6.09
126.01,6.84
126.53,6.69
127.05,6.23
127.57,6.52
128.09,7.52
128.62,8.54
129.14,9.16
129.66,9.57
130.18,9.96
130.70,9.76
131.22,9.00
131.74,8.23
132.26,5.89
132.78,4.05
133.31,3.62
133.83,4.56
134.35,5.48
134.87,5.20
135.39,4.81
135.91,5.66
136.43,6.86
136.95,7.29
137.47,7.37
137.99,7.52
138.52,7.68
139.04,7.95
139.56,7.84
140.08,7.69
140.60,8.17
141.12,9.30
141.64,10.11
142.16,9.84
142.68,8.73
143.21,7.89
143.73,8.19
144.25,9.28
144.77,9.77
145.29,10.25
145.81,10.88
146.33,11.37
146.85,11.71
147.37,11.95
147.89,12.18
148.42,12.41
148.94,12.53
149.46,12.67
149.98,13.13
150.50,13.71
151.02,13.59
151.54,12.71
152.06,12.53
152.58,12.34
153.11,13.06
153.63,14.10
154.15,15.02
154.67,16.04
155.19,16.82
155.71,16.95
156.23,16.82
156.75,16.98
157.27,17.22
157.79,17.36
158.32,18.04
158.84,18.90
159.36,19.77
159.88,21.93
160.40,23.39
160.92,24.12
161.44,25.00
161.96,26.31
162.48,27.82
163.01,29.22
163.53,30.29
164.05,31.13
164.57,32.04
165.09,32.83
165.61,32.91
166.13,33.00
166.65,32.50
167.17,31.96
167.69,31.94
168.22,32.65
168.74,34.29
169.26,36.64
169.78,38.70
170.30,39.92
170.82,40.71
171.34,41.58
171.86,42.68
172.38,43.28
172.91,43.88
173.43,45.17
173.95,46.90
174.47,49.70
174.99,53.52
175.51,57.27
176.03,59.99
176.55,62.07
177.07,64.65
177.59,68.01
178.12,71.48
178.64,74.81
179.16,76.70
179.68,78.58
180.20,82.94
180.72,86.96
181.24,90.16
181.76,93.74
182.28,98.93
182.81,105.62
183.33,113.09
183.85,120.52
184.37,127.13
184.89,133.16
185.41,139.84
185.93,143.90
186.45,147.96
186.97,157.42
187.49,167.83
188.02,179.06
188.54,191.33
189.06,204.63
189.58,217.96
190.10,230.21
190.62,241.48
191.14,252.22
191.66,262.39
192.18,272.06
192.71,276.81
193.23,281.57
193.75,291.08
194.27,300.44
194.79,309.65
195.31,319.53
195.83,330.62
196.35,342.09
196.87,352.99
197.39,363.43
197.92,374.30
198.44,386.77
198.96,401.15
199.48,408.91
200.00,416.67
201.00,433.50
201.59,452.59
202.17,473.30
202.76,494.29
203.34,515.51
203.93,537.27
204.51,560.03
205.10,585.11
205.69,613.17
206.27,643.19
206.86,674.38
207.44,690.42
208.03,706.46
208.62,737.80
209.20,766.92
209.79,795.28
210.37,825.37
210.96,857.06
211.54,888.60
212.13,919.35
212.72,949.49
213.30,978.60
213.89,1005.74
214.47,1030.61
215.06,1042.67
215.64,1054.73
216.23,1080.45
216.82,1108.30
217.40,1137.58
217.99,1168.71
218.57,1202.81
219.16,1239.90
219.75,1278.62
220.33,1317.84
220.92,1358.09
221.50,1400.22
222.09,1443.30
222.67,1464.25
223.26,1485.19
223.85,1524.95
224.43,1564.00
225.02,1604.12
225.60,1644.37
226.19,1681.92
226.78,1715.52
227.36,1745.85
227.95,1773.95
228.53,1801.17
229.12,1828.51
229.70,1855.26
230.29,1868.29
230.88,1881.31
231.46,1909.39
232.05,1941.49
232.63,1976.33
233.22,2012.54
233.80,2050.03
234.39,2088.67
234.98,2128.94
235.56,2172.09
236.15,2217.53
236.73,2262.27
237.32,2304.41
237.91,2324.16
238.49,2343.90
239.08,2379.59
239.66,2410.17
240.25,2437.36
240.83,2464.19
241.42,2492.41
242.01,2524.44
242.59,2563.88
243.18,2611.49
243.76,2664.14
244.35,2718.23
244.93,2771.11
245.52,2820.33
246.11,2842.35
246.69,2864.38
247.28,2902.77
247.86,2935.04
248.45,2960.25
249.04,2977.89
249.62,2989.08
250.21,2995.34
250.79,2998.16
251.38,3000.88
251.96,3007.16
252.55,3017.35
253.14,3029.21
253.72,3034.54
254.31,3039.86
254.89,3045.98
255.48,3045.55
256.07,3039.50
256.65,3030.15
257.24,3019.48
257.82,3010.73
258.41,3007.62
258.99,3010.62
259.58,3018.36
260.17,3031.35
260.75,3048.97
261.34,3057.33
261.92,3065.68
262.51,3074.71
263.09,3073.12
263.68,3061.06
264.27,3039.33
264.85,3009.42
265.44,2974.66
266.02,2940.05
266.61,2910.90
267.20,2890.81
267.78,2880.57
268.37,2879.25
268.95,2882.23
269.54,2885.20
270.12,2895.02
270.71,2903.78
271.30,2908.35
271.88,2908.51
272.47,2904.85
273.05,2896.39
273.64,2881.00
274.22,2859.81
274.81,2838.25
275.40,2819.97
275.98,2804.12
276.57,2796.94
277.15,2789.77
277.74,2778.20
278.33,2770.07
278.91,2764.03
279.50,2758.44
280.08,2752.75
280.67,2746.13
281.25,2736.35
281.84,2721.49
282.43,2701.31
283.01,2676.64
283.60,2649.58
284.18,2636.33
284.77,2623.08
285.36,2599.25
285.94,2579.41
286.53,2564.45
287.11,2554.98
287.70,2551.68
288.28,2553.26
288.87,2556.00
289.46,2556.97
290.04,2554.27
290.63,2544.99
291.21,2527.57
291.80,2515.97
292.38,2504.37
292.97,2479.48
293.56,2457.22
294.14,2441.47
294.73,2432.46
295.31,2427.04
295.90,2423.12
296.49,2420.21
297.07,2417.42
297.66,2413.11
298.24,2405.33
298.83,2393.03
299.41,2385.28
300.00,2377.52
301.00,2361.77
301.70,2348.52
302.39,2338.71
303.09,2331.89
303.79,2327.70
304.49,2325.28
305.18,2322.61
305.88,2318.80
306.58,2315.60
307.27,2315.35
307.97,2318.01
308.67,2319.60
309.37,2321.20
310.06,2322.83
310.76,2322.24
311.46,2320.02
312.15,2318.00
312.85,2317.91
313.55,2320.07
314.25,2324.10
314.94,2329.15
315.64,2333.37
316.34,2334.17
317.04,2328.08
317.73,2319.74
318.43,2311.40
319.13,2282.70
319.82,2243.76
320.52,2197.68
321.22,2147.76
321.92,2097.95
322.61,2051.92
323.31,2011.47
324.01,1976.27
324.70,1943.93
325.40,1911.65
326.10,1879.45
326.80,1864.70
327.49,1849.95
328.19,1824.89
328.89,1803.41
329.58,1782.91
330.28,1761.27
330.98,1738.96
331.68,1717.79
332.37,1698.22
333.07,1679.80
333.77,1662.92
334.46,1648.88
335.16,1638.44
335.86,1634.55
336.56,1630.65
337.25,1623.98
337.95,1617.89
338.65,1612.23
339.35,1607.41
340.04,1604.21
340.74,1602.00
341.44,1599.55
342.13,1597.13
342.83,1595.45
343.53,1593.82
344.23,1590.58
344.92,1587.53
345.62,1584.49
346.32,1575.91
347.01,1565.94
347.71,1554.80
348.41,1542.18
349.11,1527.84
349.80,1510.98
350.50,1491.31
351.20,1471.16
351.89,1454.72
352.59,1445.04
353.29,1441.74
353.99,1442.17
354.68,1443.49
355.38,1444.82
356.08,1450.00
356.77,1456.00
357.47,1457.80
358.17,1451.79
358.87,1439.49
359.56,1424.70
360.26,1410.09
360.96,1397.43
361.65,1386.80
362.35,1375.33
363.05,1360.69
363.75,1352.97
364.44,1345.25
365.14,1333.12
365.84,1324.21
366.54,1315.73
367.23,1306.42
367.93,1296.05
368.63,1284.52
369.32,1272.53
370.02,1260.83
370.72,1249.93
371.42,1240.15
372.11,1230.78
372.81,1225.68
373.51,1220.59
374.20,1209.23
374.90,1197.50
375.60,1186.43
376.30,1175.91
376.99,1165.46
377.69,1155.68
378.39,1147.37
379.08,1140.87
379.78,1136.80
380.48,1134.99
381.18,1133.54
381.87,1132.08
382.57,1130.62
383.27,1126.29
383.96,1121.37
384.66,1115.70
385.36,1109.03
386.06,1102.28
386.75,1096.57
387.45,1091.88
388.15,1087.07
388.85,1080.95
389.54,1073.75
390.24,1065.81
390.94,1060.68
391.63,1055.55
392.33,1042.19
393.03,1028.10
393.73,1015.44
394.42,1004.60
395.12,996.18
395.82,991.04
396.51,989.08
397.21,989.30
397.91,990.91
398.61,994.08
399.30,998.71
400.00,1000.96
401.00,1003.21
401.72,1006.17
402.45,1007.56
403.17,1007.61
403.89,1006.34
404.61,1004.36
405.34,1002.35
406.06,1000.43
406.78,998.71
407.50,997.48
408.23,996.61
408.95,995.50
409.67,994.42
410.39,993.35
411.12,988.60
411.84,978.54
412.56,961.23
413.28,938.14
414.01,913.25
414.73,890.01
415.45,869.83
416.18,852.60
416.90,837.65
417.62,823.33
418.34,807.88
419.07,799.71
419.79,791.54
420.51,775.67
421.23,760.73
421.96,746.92
422.68,734.82
423.40,724.51
424.12,715.32
424.85,707.18
425.57,701.10
426.29,697.50
427.01,695.47
427.74,694.06
428.46,693.32
429.18,692.57
429.91,689.97
430.63,685.40
431.35,678.99
432.07,672.00
432.80,665.25
433.52,658.86
434.24,653.72
434.96,650.93
435.69,649.87
436.41,648.96
437.13,647.64
437.85,647.02
438.58,646.40
439.30,645.12
440.02,642.56
440.74,638.63
441.47,635.08
442.19,632.98
442.91,631.17
443.64,627.85
444.36,622.28
445.08,615.03
445.80,607.16
446.53,599.07
447.25,595.29
447.97,591.51
448.69,586.76
449.42,586.73
450.14,590.73
450.86,596.01
451.58,599.45
452.31,598.86
453.03,594.02
453.75,586.82
454.47,579.71
455.20,573.90
455.92,569.48
456.64,567.91
457.36,566.34
458.09,563.84
458.81,560.86
459.53,556.83
460.26,552.15
460.98,547.73
461.70,543.95
462.42,540.37
463.15,537.05
463.87,534.19
464.59,530.91
465.31,526.27
466.04,520.16
466.76,516.30
467.48,512.43
468.20,503.28
468.93,494.19
469.65,486.92
470.37,482.17
471.09,478.99
471.82,475.40
472.54,470.74
473.26,466.48
473.99,463.89
474.71,462.66
475.43,461.88
476.15,461.35
476.88,460.82
477.60,458.46
478.32,453.79
479.04,447.04
479.77,439.56
480.49,432.23
481.21,424.87
481.93,417.22
482.66,409.85
483.38,403.51
484.10,398.12
484.82,393.18
485.55,390.89
486.27,388.61
486.99,384.81
487.72,382.25
488.44,380.85
489.16,380.30
489.88,380.33
490.61,380.32
491.33,380.20
492.05,380.76
492.77,381.56
493.50,380.49
494.22,376.32
494.94,373.16
495.66,370.00
496.39,363.35
497.11,357.43
497.83,352.42
498.55,348.34
499.28,345.22
500.00,342.66
501.00,340.46
502.01,338.76
503.02,336.84
504.03,333.63
505.04,329.89
506.05,328.68
507.06,327.47
508.07,326.47
509.08,325.38
510.09,324.08
511.10,323.94
512.11,324.71
513.12,323.84
514.13,319.45
515.14,312.81
516.15,306.94
517.16,303.10
518.17,300.29
519.18,299.16
520.19,298.04
521.20,296.96
522.21,296.17
523.22,293.40
524.23,288.64
525.24,284.53
526.26,282.49
527.27,281.07
528.28,278.74
529.29,275.13
530.30,269.89
531.31,263.59
532.32,261.10
533.33,258.61
534.34,256.16
535.35,254.75
536.36,253.05
537.37,251.32
538.38,249.71
539.39,247.93
540.40,246.20
541.41,244.83
542.42,243.61
543.43,242.40
544.44,241.57
545.45,241.48
546.46,241.38
547.47,241.09
548.48,239.61
549.49,237.08
550.50,234.92
551.51,234.00
552.52,233.66
553.53,233.21
554.54,232.79
555.55,232.25
556.56,231.20
557.57,230.33
558.58,230.39
559.59,230.46
560.60,230.91
561.61,230.65
562.62,229.90
563.63,229.20
564.64,228.34
565.65,226.98
566.66,224.80
567.67,221.53
568.68,217.58
569.69,213.63
570.70,210.07
571.71,208.56
572.72,207.04
573.73,204.61
574.74,202.89
575.76,201.63
576.77,199.97
577.78,197.83
578.79,196.27
579.80,195.93
580.81,196.29
581.82,196.34
582.83,195.45
583.84,194.21
584.85,193.88
585.86,193.55
586.87,192.97
587.88,191.23
588.89,188.46
589.90,185.89
590.91,183.97
591.92,182.45
592.93,181.60
593.94,181.66
594.95,181.74
595.96,180.98
596.97,180.03
597.98,179.78
598.99,179.53
600.00,178.70
601.00,176.99
602.18,175.02
603.36,173.21
604.54,171.55
605.71,170.67
606.89,170.90
608.07,171.48
609.25,171.86
610.43,172.47
611.61,173.24
612.79,173.09
613.96,172.94
615.14,170.87
616.32,167.98
617.50,165.76
618.68,164.34
619.86,162.63
621.04,160.32
622.21,158.40
623.39,157.26
624.57,156.15
625.75,154.59
626.93,152.72
628.11,150.62
629.29,149.59
630.46,148.55
631.64,147.22
632.82,146.82
634.00,146.37
635.18,145.37
636.36,144.36
637.54,143.29
638.71,141.62
639.89,139.83
641.07,138.94
642.25,138.97
643.43,139.02
644.61,138.56
645.79,138.09
646.96,135.97
648.14,133.98
649.32,133.58
650.50,134.28
651.68,134.68
652.86,133.85
654.04,131.38
655.21,128.23
656.39,126.34
657.57,125.94
658.75,125.80
659.93,125.74
661.11,125.68
662.29,125.72
663.46,125.43
664.64,124.68
665.82,124.03
667.00,123.47
668.18,122.52
669.36,121.14
670.54,119.69
671.71,118.52
672.89,117.87
674.07,117.39
675.25,116.96
676.43,116.54
677.61,115.70
678.79,115.42
679.96,114.97
681.14,113.13
682.32,110.04
683.50,106.96
684.68,104.82
685.86,103.61
687.04,102.56
688.21,101.13
689.39,99.89
690.57,99.71
691.75,99.52
692.93,99.30
694.11,98.42
695.29,96.93
696.46,94.87
697.64,92.50
698.82,91.10
700.00,91.07
701.00,90.94
702.98,89.96
704.96,89.15
706.94,89.12
708.92,89.15
710.90,89.19
712.88,88.64
714.86,87.39
716.84,85.65
718.82,83.79
720.80,82.56
722.78,82.56
724.76,83.37
726.74,83.98
728.72,84.27
730.70,84.77
732.68,85.21
734.66,84.93
736.64,84.65
738.62,82.81
740.60,80.59
742.58,79.39
744.56,79.16
746.54,78.30
748.52,76.75
750.50,76.32
752.48,77.07
754.46,77.21
756.44,76.12
758.42,74.28
760.40,73.08
762.38,71.88
764.36,69.74
766.34,69.25
768.32,69.93
770.30,69.40
772.28,66.79
774.26,63.98
776.24,62.87
778.22,63.38
780.20,64.50
782.18,65.32
784.16,64.99
786.14,64.35
788.12,63.71
790.10,62.62
792.08,62.45
794.06,63.06
796.04,63.67
798.02,63.33
800.00,61.68
801.00,59.29
803.36,57.56
805.71,57.82
808.07,59.73
810.43,61.22
812.79,61.03
815.14,60.85
817.50,59.19
819.86,57.80
822.21,57.34
824.57,56.99
826.93,55.78
829.29,53.78
831.64,52.08
834.00,51.38
836.36,51.21
838.71,51.02
841.07,51.12
843.43,51.50
845.79,51.89
848.14,52.70
850.50,52.03
852.86,49.55
855.21,47.19
857.57,46.29
859.93,45.66
862.29,44.35
864.64,43.37
867.00,43.39
869.36,43.36
871.71,42.63
874.07,42.31
876.43,41.99
878.79,41.94
881.14,41.99
883.50,41.76
885.86,41.34
888.21,41.00
890.57,41.13
892.93,41.67
895.29,41.85
897.64,41.13
900.00,39.93
901.00,38.76
904.67,38.22
908.33,37.68
912.00,36.75
915.67,36.27
919.33,36.25
923.00,35.96
926.67,34.95
930.33,34.21
934.00,34.51
937.67,34.72
941.33,33.97
945.00,33.27
948.67,33.33
952.33,33.24
956.00,32.71
959.67,32.18
963.33,30.79
967.00,29.79
970.67,28.73
974.33,27.28
978.00,26.17
981.67,26.18
985.33,27.40
989.00,29.18
992.67,30.09
996.33,29.28
1000.00,27.87
1001.00,27.70
1006.10,27.53
1011.21,28.33
1016.31,29.26
1021.41,29.62
1026.51,29.32
1031.62,28.54
1036.72,27.37
1041.82,25.91
1046.92,24.58
1052.03,23.88
1057.13,23.72
1062.23,23.38
1067.33,22.89
1072.44,22.40
1077.54,21.68
1082.64,22.37
1087.74,23.92
1092.85,24.71
1097.95,24.02
1103.05,22.71
1108.15,21.88
1113.26,21.65
1118.36,21.72
1123.46,22.14
1128.56,22.86
1133.67,23.20
1138.77,23.53
1143.87,23.83
1148.97,23.38
1154.08,22.29
1159.18,21.43
1164.28,21.09
1169.38,20.59
1174.49,20.03
1179.59,20.36
1184.69,21.38
1189.79,21.84
1194.90,21.56
1200.00,21.37
1201.00,21.18
1210.06,20.56
1219.12,19.44
1228.18,18.49
1237.24,18.36
1246.30,18.73
1255.36,18.79
1264.42,18.62
1273.48,19.04
1282.55,20.06
1291.61,20.33
1300.67,18.97
1309.73,18.14
1318.79,17.32
1327.85,17.29
1336.91,18.45
1345.97,18.81
1355.03,17.87
1364.09,16.80
1373.15,16.41
1382.21,16.41
1391.27,16.08
1400.33,15.27
1409.39,14.59
1418.45,14.43
1427.52,14.39
1436.58,14.34
1445.64,13.97
1454.70,14.08
1463.76,15.24
1472.82,16.43
1481.88,16.73
1490.94,16.62
1500.00,16.36
1501.00,15.64
1510.24,14.99
1519.48,15.11
1528.72,15.82
1537.96,16.07
1547.20,16.32
1556.44,16.24
1565.69,16.03
1574.93,16.06
1584.17,16.25
1593.41,16.44
1602.65,16.13
1611.89,14.80
1621.13,13.16
1630.37,12.64
1639.61,13.51
1648.85,14.65
1658.09,14.83
1667.33,15.00
1676.57,14.66
1685.81,14.32
1695.06,14.13
1704.30,13.82
1713.54,13.46
1722.78,13.28
1732.02,13.09
1741.26,12.66
1750.50,11.94
1759.74,11.22
1768.98,11.02
1778.22,11.21
1787.46,11.40
1796.70,11.81
1805.94,12.00
1815.19,12.20
1824.43,12.35
1833.67,12.22
1842.91,12.10
1852.15,12.07
1861.39,11.89
1870.63,11.86
1879.87,12.37
1889.11,12.78
1898.35,12.65
1907.59,12.52
1916.83,12.38
1926.07,12.96
1935.31,13.46
1944.56,13.14
1953.80,12.25
1963.04,11.53
1972.28,11.56
1981.52,12.05
1990.76,12.05
2000.00,11.49
2001.00,10.93
2018.22,10.60
2035.45,10.28
2052.67,9.62
2069.90,9.66
2087.12,10.03
2104.34,9.94
2121.57,9.83
2138.79,10.24
2156.02,10.79
2173.24,11.25
2190.47,11.36
2207.69,10.77
2224.91,9.97
2242.14,9.60
2259.36,9.72
2276.59,9.85
2293.81,11.20
2311.03,13.24
2328.26,14.36
2345.48,13.89
2362.71,12.61
2379.93,11.25
2397.16,10.49
2414.38,10.88
2431.60,11.76
2448.83,11.70
2466.05,10.69
2483.28,10.37
2500.50,10.06
2517.72,10.41
2534.95,11.18
2552.17,12.01
2569.40,13.04
2586.62,13.95
2603.84,13.84
2621.07,12.64
2638.29,11.38
2655.52,10.94
2672.74,11.35
2689.97,11.79
2707.19,11.55
2724.41,11.32
2741.64,10.14
2758.86,9.43
2776.09,9.73
2793.31,10.45
2810.53,11.00
2827.76,10.79
2844.98,9.48
2862.21,8.40
2879.43,9.07
2896.66,10.45
2913.88,10.83
2931.10,10.73
2948.33,10.63
2965.55,10.61
2982.78,10.46
3000.00,10.29
3001.00,10.56
3025.99,10.70
3050.98,10.14
3075.98,9.56
3100.97,9.85
3125.96,10.75
3150.95,11.71
3175.94,12.76
3200.93,13.26
3225.93,13.76
3250.92,14.03
3275.91,13.47
3300.90,12.49
3325.89,11.17
3350.88,9.88
3375.87,9.26
3400.87,9.20
3425.86,9.14
3450.85,9.31
3475.84,10.30
3500.83,11.78
3525.82,12.30
3550.82,12.82
3575.81,12.72
3600.80,11.55
3625.79,10.32
3650.78,10.21
3675.77,10.80
3700.77,10.41
3725.76,8.72
3750.75,6.85
3775.74,5.43
3800.73,4.77
3825.73,5.32
3850.72,5.94
3875.71,6.56
3900.70,7.51
3925.69,8.14
3950.68,8.61
3975.68,8.55
4000.67,7.94
4025.66,7.45
4050.65,7.10
4075.64,6.28
4100.63,5.22
4125.62,4.74
4150.62,4.60
4175.61,4.45
4200.60,4.30
4225.59,4.59
4250.58,6.01
4275.58,7.18
4300.57,6.83
4325.56,6.03
4350.55,6.03
4375.54,6.08
4400.53,5.44
4425.52,4.82
4450.52,4.79
4475.51,4.92
4500.50,4.77
4525.49,4.62
4550.48,3.92
4575.48,3.21
4600.47,2.63
4625.46,2.18
4650.45,2.15
4675.44,2.82
4700.43,3.73
4725.42,4.06
4750.42,3.86
4775.41,3.89
4800.40,4.49
4825.39,4.98
4850.38,5.48
4875.37,6.45
4900.37,6.75
4925.36,6.29
4950.35,5.86
4975.34,5.81
5000.33,5.77
5025.33,5.65
5050.32,6.04
5075.31,7.07
5100.30,7.67
5125.29,7.00
5150.28,6.37
5175.27,5.74
5200.27,4.77
5225.26,4.32
5250.25,4.44
5275.24,5.07
5300.23,5.95
5325.23,6.62
5350.22,6.62
5375.21,6.16
5400.20,5.82
5425.19,5.94
5450.18,6.46
5475.17,6.60
5500.17,6.74
5525.16,6.34
5550.15,5.56
5575.14,4.72
5600.13,3.94
5625.12,3.72
5650.12,4.44
5675.11,6.35
5700.10,11.99
5725.09,29.64
5750.08,76.31
5775.08,178.74
5800.07,272.49
5825.06,366.25
5850.05,653.61
5875.04,1025.62
5900.03,1436.67
5925.02,1821.29
5950.02,2106.50
5975.01,2227.83
6000.00,2152.41
6024.79,1897.82
6049.64,1528.16
6074.48,1126.38
6099.32,763.13
6124.16,479.01
6149.01,380.79
6173.85,282.58
6198.69,160.55
6223.53,92.05
6248.38,57.66
6273.22,42.07
6298.06,34.85
6322.90,30.54
6347.75,27.25
6372.59,24.75
6397.43,22.84
6422.27,21.16
6447.12,20.00
6471.96,19.79
6496.80,19.58
6521.65,18.96
6546.49,17.42
6571.33,15.76
6596.17,15.23
6621.02,15.92
6645.86,17.11
6670.70,18.44
6695.54,19.88
6720.39,21.18
6745.23,22.20
6770.07,23.00
6794.91,23.16
6819.76,23.31
6844.60,23.14
6869.44,23.21
6894.28,23.60
6919.13,23.59
6943.97,23.03
6968.81,22.26
6993.65,21.48
7018.50,20.98
7043.34,20.77
7068.18,20.18
7093.02,18.71
7117.87,17.70
7142.71,16.68
7167.55,14.85
7192.39,13.54
7217.24,12.51
7242.08,11.83
7266.92,11.78
7291.77,11.99
7316.61,11.41
7341.45,9.63
7366.29,7.70
7391.14,7.03
7415.98,7.56
7440.82,7.76
7465.66,7.95
7490.51,7.29
7515.35,5.58
7540.19,3.41
7565.03,1.62
7589.88,0.65
7614.72,0.11
7639.56,-0.44
7664.40,-0.83
7689.25,-0.81
7714.09,-0.37
7738.93,0.12
7763.77,0.14
7788.62,0.17
7813.46,0.08
7838.30,0.51
7863.14,1.34
7887.99,2.00
7912.83,2.33
7937.67,2.37
7962.51,2.04
7987.36,1.43
8012.20,1.08
8037.04,1.56
8061.89,2.56
8086.73,2.76
8111.57,2.96
8136.41,2.30
8161.26,1.32
8186.10,0.73
8210.94,0.73
8235.78,1.14
8260.63,1.20
8285.47,0.46
8310.31,-0.46
8335.15,-0.76
8360.00,-0.46
8384.84,-0.05
8409.68,0.22
8434.52,0.50
8459.37,1.64
8484.21,2.80
8509.05,2.47
8533.89,0.57
8558.74,-1.20
8583.58,-1.68
8608.42,-1.27
8633.26,-0.44
8658.11,0.77
8682.95,1.83
8707.79,2.13
8732.63,1.97
8757.48,1.82
8782.32,1.13
8807.16,-0.02
8832.00,-1.21
8856.85,-1.67
8881.69,-1.44
8906.53,-1.28
8931.37,-1.75
8956.22,-2.40
8981.06,-2.44
9005.90,-1.85
9030.75,-1.14
9055.59,-0.96
9080.43,-0.77
9105.27,-1.06
9130.12,-2.01
9154.96,-3.14
9179.80,-4.18
9204.64,-5.24
9229.49,-6.10
9254.33,-6.02
9279.17,-4.53
9304.01,-2.64
9328.86,-2.07
9353.70,-2.93
9378.54,-3.30
9403.38,-3.66
9428.23,-3.49
9453.07,-3.22
9477.91,-3.35
9502.75,-2.95
9527.60,-1.76
9552.44,-0.93
9577.28,-0.84
9602.12,-0.51
9626.97,0.49
9651.81,1.29
9676.65,0.98
9701.50,0.52
9726.34,0.06
9751.18,-0.31
9776.02,-0.14
9800.87,-0.32
9825.71,-1.18
9850.55,-2.07
9875.39,-2.11
9900.24,-1.25
9925.08,-0.39
9949.92,-0.09
9974.76,-0.06
9999.61,-0.04
10024.45,-0.01
10049.29,0.03
10074.13,0.34
10098.98,0.90
10123.82,1.28
10148.66,0.97
10173.50,0.13
10198.35,-0.46
10223.19,-0.48
10248.03,-0.27
10272.87,-0.03
10297.72,0.56
10322.56,1.81
10347.40,3.21
10372.25,3.40
10397.09,3.60
10421.93,2.60
10446.77,1.26
10471.62,0.82
10496.46,1.20
10521.30,1.09
10546.14,-0.45
10570.99,-2.62
10595.83,-3.48
10620.67,-2.63
10645.51,-1.91
10670.36,-2.57
10695.20,-3.12
10720.04,-3.67
10744.88,-3.98
10769.73,-3.53
10794.57,-2.73
10819.41,-1.49
10844.25,-0.29
10869.10,-0.41
10893.94,-1.93
10918.78,-3.28
10943.62,-3.59
10968.47,-3.45
10993.31,-3.42
11018.15,-3.29
11043.00,-3.16
11067.84,-2.69
11092.68,-2.90
11117.52,-3.78
11142.37,-4.16
11167.21,-3.69
11192.05,-3.07
11216.89,-2.45
11241.74,-1.68
11266.58,-1.44
11291.42,-2.08
11316.26,-2.50
11341.11,-2.20
11365.95,-1.91
11390.79,-1.14
11415.63,-0.90
11440.48,-0.63
11465.32,0.04
11490.16,0.65
11515.00,0.86
11539.85,0.70
11564.69,0.25
11589.53,-0.37
11614.37,-0.98
11639.22,-1.52
11664.06,-1.80
11688.90,-2.07
11713.74,-2.29
11738.59,-1.57
11763.43,-0.45
11788.27,-0.62
11813.12,-2.51
11837.96,-4.53
11862.80,-5.02
11887.64,-3.94
11912.49,-2.50
11937.33,-2.06
11962.17,-2.81
11987.01,-3.23
12011.86,-3.65
12036.70,-3.84
12061.54,-3.49
12086.38,-2.85
12111.23,-2.26
12136.07,-1.94
12160.91,-1.64
12185.75,-1.14
12210.60,-0.37
12235.44,0.71
12260.28,1.43
12285.12,0.65
12309.97,-0.45
12334.81,-1.55
12359.65,-3.44
12384.49,-3.63
12409.34,-2.84
12434.18,-2.59
12459.02,-2.68
12483.86,-2.10
12508.71,-1.49
12533.55,-1.94
12558.39,-2.52
12583.24,-1.92
12608.08,-0.87
12632.92,-0.72
12657.76,-0.57
12682.61,-0.68
12707.45,-0.40
12732.29,-0.01
12757.13,-0.14
12781.98,-0.89
12806.82,-1.73
12831.66,-1.87
12856.50,-1.45
12881.35,-1.74
12906.19,-3.07
12931.03,-3.77
12955.87,-3.04
12980.72,-2.32
13005.56,0.39
13030.40,2.06
13055.24,2.10
13080.09,1.57
13104.93,0.88
13129.77,-0.16
13154.61,-0.88
13179.46,-0.35
13204.30,0.89
13229.14,1.52
13253.98,1.68
13278.83,1.86
13303.67,2.04
13328.51,1.77
13353.35,0.51
13378.20,-0.13
13403.04,0.56
13427.88,0.77
13452.73,-0.76
13477.57,-2.73
13502.41,-3.67
13527.25,-3.65
13552.10,-3.04
13576.94,-1.85
13601.78,-1.16
13626.62,-0.47
13651.47,0.49
13676.31,0.93
13701.15,0.88
13725.99,-0.02
13750.84,-1.58
13775.68,-2.61
13800.52,-2.38
13825.36,-1.44
13850.21,-1.00
13875.05,-1.51
13899.89,-1.96
13924.73,-1.71
13949.58,-1.46
13974.42,-0.65
13999.26,-0.16
14024.10,0.40
14048.95,0.86
14073.79,0.32
14098.63,-0.81
14123.47,-1.27
14148.32,-0.87
14173.16,-0.07
14198.00,0.54
14222.85,0.25
14247.69,-1.08
14272.53,-1.65
14297.37,-2.22
14322.22,-1.68
14347.06,0.26
14371.90,1.90
14396.74,2.26
14421.59,1.62
14446.43,0.62
14471.27,-0.28
14496.11,-0.96
14520.96,-1.57
14545.80,-2.23
14570.64,-2.76
14595.48,-2.72
14620.33,-2.69
14645.17,-1.83
14670.01,-0.62
14694.85,0.44
14719.70,1.11
14744.54,0.87
14769.38,-0.44
14794.22,-1.74
14819.07,-2.14
14843.91,-2.30
14868.75,-2.95
14893.59,-3.53
14918.44,-3.36
14943.28,-3.20
14968.12,-2.27
14992.97,-1.48
15017.81,-0.82
15042.65,-0.14
15067.49,0.48
15092.34,1.11
15117.18,1.39
15142.02,0.83
15166.86,0.01
15191.71,-0.22
15216.55,-0.38
15241.39,-0.93
15266.23,-1.49
15291.08,-3.17
15315.92,-4.20
15340.76,-4.43
15365.60,-4.59
15390.45,-4.88
15415.29,-5.05
15440.13,-4.78
15464.97,-4.00
15489.82,-3.08
15514.66,-2.56
15539.50,-2.76
15564.34,-3.06
15589.19,-3.37
15614.03,-3.63
15638.87,-3.43
15663.71,-3.31
15688.56,-3.33
15713.40,-3.01
15738.24,-2.59
15763.08,-2.38
15787.93,-1.88
15812.77,-0.91
15837.61,-0.36
15862.46,-0.94
15887.30,-1.64
15912.14,-2.34
15936.98,-3.56
15961.83,-3.57
15986.67,-2.26
16011.51,-0.55
16036.35,0.28
16061.20,-0.42
16086.04,-1.97
16110.88,-2.69
16135.72,-1.65
16160.57,0.19
16185.41,1.24
16210.25,1.16
16235.09,1.07
16259.94,0.50
16284.78,0.33
16309.62,0.62
16334.46,0.85
16359.31,0.69
16384.15,0.58
16408.99,0.70
16433.84,0.46
16458.68,-0.08
16483.52,0.01
16508.36,1.00
16533.21,1.49
16558.05,1.97
16582.89,2.21
16607.73,1.79
16632.58,1.09
16657.42,0.48
16682.26,0.08
16707.10,-0.25
16731.95,-0.22
16756.79,0.52
16781.63,1.44
16806.47,1.66
16831.32,1.04
16856.16,0.54
16881.00,0.04
16905.84,-1.13
16930.69,-2.16
16955.53,-2.30
16980.37,-1.72
17005.21,-1.53
17030.06,-1.90
17054.90,-1.93
17079.74,-1.07
17104.58,0.23
17129.43,1.00
17154.27,0.74
17179.11,0.35
17203.96,-0.04
17228.80,-0.45
17253.64,-0.35
17278.48,-0.40
17303.33,-1.07
17328.17,-2.36
17353.01,-3.72
17377.85,-4.09
17402.70,-3.21
17427.54,-2.24
17452.38,-2.08
17477.22,-2.22
17502.07,-2.07
17526.91,-1.92
17551.75,-1.44
17576.59,-1.25
17601.44,-1.06
17626.28,-0.64
17651.12,-0.59
17675.96,-1.18
17700.81,-1.69
17725.65,-1.55
17750.49,-0.97
17775.33,-0.58
17800.18,-0.75
17825.02,-0.86
17849.86,-0.98
17874.71,-0.35
17899.55,1.01
17924.39,1.81
17949.23,1.33
17974.07,0.17
17998.92,-0.95
18023.76,-1.73
18048.60,-1.73
18073.45,-1.02
18098.29,-0.54
18123.13,-0.80
18147.97,-1.13
18172.82,-1.47
18197.66,-1.97
18222.50,-1.89
18247.34,-1.15
18272.19,-0.18
18297.03,0.21
18321.87,-0.22
18346.71,-0.74
18371.56,-0.84
18396.40,-0.83
18421.24,-0.92
18446.08,-1.23
18470.93,-1.65
18495.77,-1.67
18520.61,-1.69
18545.46,-1.28
