Size (bp),Intensity
0.58,1913.27
1.00,1736.82
2.00,1245.07
2.42,717.53
2.84,351.16
3.26,168.31
3.68,98.90
4.10,78.38
4.52,76.63
4.94,74.88
5.36,76.32
5.79,78.03
6.21,76.87
6.63,70.77
7.05,60.89
7.47,50.46
7.89,41.38
8.31,34.10
8.73,28.49
9.15,23.78
9.57,19.53
9.99,16.86
10.41,16.97
10.83,19.10
11.25,20.91
11.67,20.67
12.09,20.43
12.52,17.37
12.94,13.09
13.36,9.06
13.78,6.06
14.20,4.85
14.62,5.75
15.04,7.69
15.46,8.99
15.88,9.37
16.30,9.68
16.72,10.14
17.14,10.53
17.56,10.86
17.98,10.72
18.40,9.82
18.82,9.14
19.24,8.46
19.67,7.02
20.09,5.74
20.51,4.45
20.93,3.03
21.35,2.36
21.77,3.00
22.19,3.88
22.61,3.71
23.03,2.63
23.45,1.96
23.87,2.56
24.29,3.61
24.71,3.95
25.13,3.71
25.55,3.29
25.97,2.95
26.39,2.62
26.82,1.84
27.24,1.28
27.66,0.78
28.08,-0.00
28.50,-0.73
28.92,-0.73
29.34,-0.18
29.76,-0.10
30.18,-0.85
30.60,-1.54
31.02,-1.46
31.44,-1.06
31.86,-0.67
32.28,0.31
32.70,1.16
33.12,2.00
33.55,3.33
33.97,3.44
34.39,2.70
34.81,2.14
35.23,2.45
35.65,3.25
36.07,3.64
36.49,3.55
36.91,3.57
37.33,3.91
37.75,4.31
38.17,4.37
38.59,4.06
39.01,3.70
39.43,3.31
39.85,2.98
40.27,2.64
40.70,2.02
41.12,2.04
41.54,2.59
41.96,2.85
42.38,2.26
42.80,1.33
43.22,1.16
43.64,1.89
44.06,2.47
44.48,2.21
44.90,1.49
45.32,0.90
45.74,0.62
46.16,0.54
46.58,0.53
47.00,0.61
47.42,0.69
47.85,1.24
48.27,2.22
48.69,3.73
49.11,5.93
49.53,8.56
49.95,10.65
50.37,11.33
50.79,10.72
51.21,10.28
51.63,11.71
52.05,15.37
52.47,19.96
52.89,23.37
53.31,23.58
53.73,19.67
54.15,16.41
54.58,13.16
55.00,7.61
55.42,5.57
55.84,6.05
56.26,6.45
56.68,5.90
57.10,5.45
57.52,5.61
57.94,5.55
58.36,4.50
58.78,2.99
59.20,2.02
59.62,1.70
60.04,1.39
60.46,0.67
60.88,0.13
61.30,-0.41
61.73,-1.25
62.15,-1.28
62.57,-0.59
62.99,0.77
63.41,2.96
63.83,5.01
64.25,5.04
64.67,2.86
65.09,0.84
65.51,0.64
65.93,0.91
66.35,0.47
66.77,0.48
67.19,1.68
67.61,3.00
68.03,3.17
68.45,3.34
68.88,2.91
69.30,2.67
69.72,3.14
70.14,3.63
70.56,3.43
70.98,2.63
71.40,1.53
71.82,0.51
72.24,0.28
72.66,1.16
73.08,2.47
73.50,3.21
73.92,3.32
74.34,3.21
74.76,2.60
75.18,2.11
75.61,1.62
76.03,1.44
76.45,2.08
76.87,1.86
77.29,0.38
77.71,-0.62
78.13,-0.29
78.55,0.18
78.97,-0.02
79.39,-0.11
79.81,0.88
80.23,2.64
80.65,3.97
81.07,4.43
81.49,4.71
81.91,5.24
82.33,5.56
82.76,5.87
83.18,6.54
83.60,7.17
84.02,7.36
84.44,6.85
84.86,5.90
85.28,4.69
85.70,3.04
86.12,1.60
86.54,1.51
86.96,2.19
87.38,2.13
87.80,1.11
88.22,0.05
88.64,-0.13
89.06,0.34
89.48,0.82
89.91,2.23
90.33,3.14
90.75,3.56
91.17,4.34
91.59,5.41
92.01,5.72
92.43,5.33
92.85,5.24
93.27,5.59
93.69,5.79
94.11,5.78
94.53,5.78
94.95,5.55
95.37,4.77
95.79,3.82
96.21,3.55
96.64,3.29
97.06,3.15
97.48,3.03
97.90,3.05
98.32,3.47
98.74,3.88
99.16,3.93
99.58,4.15
100.00,4.82
101.00,5.29
101.52,5.04
102.04,4.31
102.56,3.73
103.08,3.89
103.61,4.55
104.13,4.85
104.65,4.74
105.17,4.63
105.69,4.38
106.21,4.35
106.73,5.04
107.25,6.98
107.77,9.31
108.29,10.75
108.82,11.69
109.34,13.21
109.86,15.07
110.38,16.25
110.90,16.34
111.42,15.58
111.94,13.74
112.46,10.36
112.98,6.57
113.51,5.61
114.03,4.66
114.55,5.26
115.07,6.71
115.59,7.26
116.11,6.50
116.63,5.34
117.15,4.67
117.67,4.43
118.19,4.35
118.72,4.27
119.24,3.79
119.76,2.81
120.28,1.86
120.80,1.55
121.32,2.17
121.84,2.88
122.36,3.58
122.88,4.77
123.41,4.35
123.93,2.51
124.45,1.20
124.97,1.20
125.49,1.34
126.01,1.22
126.53,1.57
127.05,2.35
127.57,2.98
128.09,3.18
128.62,3.25
129.14,3.90
129.66,4.98
130.18,5.13
130.70,4.51
131.22,3.89
131.74,2.61
132.26,2.52
132.78,3.23
133.31,3.64
133.83,3.54
134.35,3.72
134.87,4.56
135.39,5.19
135.91,4.68
136.43,3.62
136.95,3.15
137.47,3.54
137.99,4.37
138.52,4.87
139.04,4.44
139.56,4.07
140.08,3.71
140.60,3.94
141.12,4.98
141.64,5.37
142.16,4.54
142.68,3.48
143.21,3.34
143.73,3.92
144.25,4.11
144.77,3.77
145.29,3.93
145.81,4.93
146.33,5.92
146.85,6.37
147.37,6.56
147.89,6.75
148.42,6.91
148.94,7.06
149.46,7.35
149.98,7.21
150.50,6.80
151.02,6.62
151.54,6.46
152.06,6.20
152.58,6.59
153.11,7.72
153.63,8.49
154.15,8.86
154.67,9.63
155.19,10.09
155.71,9.21
156.23,7.90
156.75,7.83
157.27,7.76
157.79,9.25
158.32,11.58
158.84,13.43
159.36,13.96
159.88,13.27
160.40,11.87
160.92,10.92
161.44,11.87
161.96,14.41
162.48,16.63
163.01,17.36
163.53,16.69
164.05,15.51
164.57,14.95
165.09,15.56
165.61,16.40
166.13,17.25
166.65,19.14
167.17,19.86
167.69,19.43
168.22,19.40
168.74,20.52
169.26,21.99
169.78,22.98
170.30,23.59
170.82,24.28
171.34,25.13
171.86,25.96
172.38,26.93
172.91,28.46
173.43,30.31
173.95,31.45
174.47,31.47
174.99,31.48
175.51,31.31
176.03,31.92
176.55,33.00
177.07,33.65
177.59,34.05
178.12,35.12
178.64,36.62
179.16,37.79
179.68,38.92
180.20,40.64
180.72,43.00
181.24,45.60
181.76,47.54
182.28,48.10
182.81,47.78
183.33,47.74
183.85,47.70
184.37,48.31
184.89,49.33
185.41,50.75
185.93,52.85
186.45,55.16
186.97,56.51
187.49,56.45
188.02,56.03
188.54,56.36
189.06,57.41
189.58,58.66
190.10,59.97
190.62,61.52
191.14,63.48
191.66,64.56
192.18,65.63
192.71,67.42
193.23,68.87
193.75,70.48
194.27,71.64
194.79,71.52
195.31,70.79
195.83,70.51
196.35,70.98
196.87,72.25
197.39,73.79
197.92,74.61
198.44,74.92
198.96,75.97
199.48,77.71
200.00,79.02
201.00,79.34
201.59,79.67
202.17,80.15
202.76,80.65
203.34,81.19
203.93,81.86
204.51,82.50
205.10,83.36
205.69,85.18
206.27,87.46
206.86,88.96
207.44,89.64
208.03,90.23
208.62,90.92
209.20,91.25
209.79,91.08
210.37,90.91
210.96,91.00
211.54,91.09
212.13,91.59
212.72,92.28
213.30,92.76
213.89,92.94
214.47,93.25
215.06,93.93
215.64,94.60
216.23,95.16
216.82,96.37
217.40,98.36
217.99,99.70
218.57,100.00
219.16,100.88
219.75,103.03
220.33,105.51
220.92,106.44
221.50,107.38
222.09,107.79
222.67,106.12
223.26,103.65
223.85,102.73
224.43,104.24
225.02,107.46
225.60,110.99
226.19,112.94
226.78,112.43
227.36,110.70
227.95,109.95
228.53,111.26
229.12,113.39
229.70,114.63
230.29,115.07
230.88,115.50
231.46,117.08
232.05,118.43
232.63,118.49
233.22,117.97
233.80,117.87
234.39,118.66
234.98,120.27
235.56,121.74
236.15,121.76
236.73,120.57
237.32,119.93
237.91,120.37
238.49,120.65
239.08,120.55
239.66,121.31
240.25,122.32
240.83,123.33
241.42,125.52
242.01,126.84
242.59,127.37
243.18,128.17
243.76,129.70
244.35,131.12
244.93,131.77
245.52,132.03
246.11,132.47
246.69,133.13
247.28,133.62
247.86,133.78
248.45,134.42
249.04,136.06
249.62,137.75
250.21,138.18
250.79,138.61
251.38,139.07
251.96,139.88
252.55,140.90
253.14,141.29
253.72,141.17
254.31,141.45
254.89,142.11
255.48,142.44
256.07,142.47
256.65,142.76
257.24,143.59
257.82,145.01
258.41,146.75
258.99,148.15
259.58,148.92
260.17,149.16
260.75,149.39
261.34,150.22
261.92,151.68
262.51,152.87
263.09,153.06
263.68,153.64
264.27,156.17
264.85,159.69
265.44,162.52
266.02,164.61
266.61,166.62
267.20,168.74
267.78,170.73
268.37,171.92
268.95,172.15
269.54,172.23
270.12,172.31
270.71,173.45
271.30,176.13
271.88,179.94
272.47,183.60
273.05,186.35
273.64,188.70
274.22,191.22
274.81,193.95
275.40,196.78
275.98,199.71
276.57,203.04
277.15,207.19
277.74,212.23
278.33,217.42
278.91,221.67
279.50,223.26
280.08,224.84
280.67,227.81
281.25,231.11
281.84,234.82
282.43,239.15
283.01,244.07
283.60,248.84
284.18,252.57
284.77,255.84
285.36,260.53
285.94,267.06
286.53,273.86
287.11,279.88
287.70,285.13
288.28,290.01
288.87,295.40
289.46,298.61
290.04,301.83
290.63,309.03
291.21,316.88
291.80,324.96
292.38,332.37
292.97,339.05
293.56,346.23
294.14,354.76
294.73,363.86
295.31,372.06
295.90,379.05
296.49,385.44
297.07,392.13
297.66,399.96
298.24,408.88
298.83,418.29
299.41,423.14
300.00,428.00
301.00,437.75
301.70,447.00
302.39,455.71
303.09,464.63
303.79,474.55
304.49,484.77
305.18,493.75
305.88,501.87
306.58,510.89
307.27,520.92
307.97,531.17
308.67,541.47
309.37,551.49
310.06,560.84
310.76,565.45
311.46,570.06
312.15,580.39
312.85,592.50
313.55,605.02
314.25,615.71
314.94,625.00
315.64,634.90
316.34,644.87
317.04,653.65
317.73,662.72
318.43,674.00
319.13,686.59
319.82,698.11
320.52,707.91
321.22,717.51
321.92,728.21
322.61,733.85
323.31,739.49
324.01,750.09
324.70,760.01
325.40,770.22
326.10,780.63
326.80,790.39
327.49,799.82
328.19,809.91
328.89,820.48
329.58,830.23
330.28,838.67
330.98,846.70
331.68,855.20
332.37,863.85
333.07,871.83
333.77,879.16
334.46,882.97
335.16,886.77
335.86,895.48
336.56,905.31
337.25,915.73
337.95,925.36
338.65,932.89
339.35,939.27
340.04,946.18
340.74,953.32
341.44,960.03
342.13,967.29
342.83,975.89
343.53,984.63
344.23,992.03
344.92,997.94
345.62,1002.74
346.32,1004.76
347.01,1006.79
347.71,1011.12
348.41,1017.06
349.11,1024.37
349.80,1031.47
350.50,1037.52
351.20,1042.79
351.89,1047.77
352.59,1052.74
353.29,1057.37
353.99,1061.46
354.68,1065.53
355.38,1069.66
356.08,1073.53
356.77,1077.27
357.47,1079.04
358.17,1080.82
358.87,1083.91
359.56,1086.90
360.26,1090.37
360.96,1094.23
361.65,1097.76
362.35,1100.53
363.05,1102.88
363.75,1105.52
364.44,1108.82
365.14,1112.23
365.84,1114.67
366.54,1116.09
367.23,1118.19
367.93,1122.03
368.63,1125.85
369.32,1126.61
370.02,1127.38
370.72,1126.96
371.42,1126.24
372.11,1126.24
372.81,1127.43
373.51,1129.83
374.20,1132.55
374.90,1134.49
375.60,1135.57
376.30,1136.08
376.99,1135.82
377.69,1135.15
378.39,1134.84
379.08,1134.75
379.78,1134.83
380.48,1135.66
381.18,1136.38
381.87,1137.10
382.57,1138.26
383.27,1138.21
383.96,1136.28
384.66,1132.90
385.36,1129.79
386.06,1128.03
386.75,1126.86
387.45,1125.07
388.15,1122.79
388.85,1121.29
389.54,1120.96
390.24,1120.14
390.94,1117.25
391.63,1113.58
392.33,1111.38
393.03,1111.02
393.73,1110.66
394.42,1110.07
395.12,1109.01
395.82,1107.84
396.51,1106.84
397.21,1105.15
397.91,1101.64
398.61,1097.16
399.30,1094.05
400.00,1092.93
401.00,1092.15
401.72,1090.43
402.45,1087.76
403.17,1084.56
403.89,1081.58
404.61,1080.45
405.34,1079.33
406.06,1077.47
406.78,1075.71
407.50,1074.15
408.23,1072.54
408.95,1070.18
409.67,1066.48
410.39,1062.01
411.12,1058.41
411.84,1056.25
412.56,1054.96
413.28,1054.15
414.01,1052.99
414.73,1049.99
415.45,1045.45
416.18,1042.01
416.90,1041.46
417.62,1040.91
418.34,1040.11
419.07,1037.77
419.79,1034.10
420.51,1029.90
421.23,1025.79
421.96,1021.98
422.68,1018.28
423.40,1015.17
424.12,1013.13
424.85,1011.16
425.57,1008.32
426.29,1004.73
427.01,1000.27
427.74,995.31
428.46,991.56
429.18,990.65
429.91,989.73
430.63,988.22
431.35,985.47
432.07,981.79
432.80,978.19
433.52,974.81
434.24,971.48
434.96,969.00
435.69,967.47
436.41,965.52
437.13,962.66
437.85,959.69
438.58,956.82
439.30,953.98
440.02,951.34
440.74,948.32
441.47,946.38
442.19,944.44
442.91,940.36
443.64,936.56
444.36,932.71
445.08,928.79
445.80,925.12
446.53,921.73
447.25,918.46
447.97,915.31
448.69,912.52
449.42,909.78
450.14,906.32
450.86,902.35
451.58,898.44
452.31,894.12
453.03,889.34
453.75,887.29
454.47,885.25
455.20,882.59
455.92,881.09
456.64,879.72
457.36,877.33
458.09,873.83
458.81,870.15
459.53,866.90
460.26,863.92
460.98,860.97
461.70,858.14
462.42,855.41
463.15,852.52
463.87,849.08
464.59,844.51
465.31,841.75
466.04,838.99
466.76,834.07
467.48,830.75
468.20,828.30
468.93,825.60
469.65,822.07
470.37,817.77
471.09,813.62
471.82,810.42
472.54,807.76
473.26,804.67
473.99,800.94
474.71,797.27
475.43,793.99
476.15,790.83
476.88,787.99
477.60,786.62
478.32,785.24
479.04,781.09
479.77,775.19
480.49,769.59
481.21,765.72
481.93,762.36
482.66,758.04
483.38,753.57
484.10,750.71
484.82,748.78
485.55,745.72
486.27,742.22
486.99,740.64
487.72,740.75
488.44,740.13
489.16,737.62
489.88,735.93
490.61,734.24
491.33,731.23
492.05,728.31
492.77,724.83
493.50,721.17
494.22,717.77
494.94,714.19
495.66,710.19
496.39,705.96
497.11,701.68
497.83,698.17
498.55,696.14
499.28,694.58
500.00,692.13
501.00,688.52
502.01,683.35
503.02,679.92
504.03,676.49
505.04,669.51
506.05,664.12
507.06,660.65
508.07,658.73
509.08,657.55
510.09,655.47
511.10,651.33
512.11,646.12
513.12,641.85
514.13,639.06
515.14,636.36
516.15,632.42
517.16,627.67
518.17,623.33
519.18,621.53
520.19,619.72
521.20,616.99
522.21,615.40
523.22,613.96
524.23,611.09
525.24,606.64
526.26,602.03
527.27,598.33
528.28,594.80
529.29,590.68
530.30,587.31
531.31,585.81
532.32,584.67
533.33,582.22
534.34,578.77
535.35,575.08
536.36,573.29
537.37,571.50
538.38,568.49
539.39,565.74
540.40,561.92
541.41,556.92
542.42,552.51
543.43,549.70
544.44,547.85
545.45,546.10
546.46,543.96
547.47,541.32
548.48,538.57
549.49,536.00
550.50,533.48
551.51,531.05
552.52,528.47
553.53,526.74
554.54,525.00
555.55,520.54
556.56,515.66
557.57,510.79
558.58,506.82
559.59,504.83
560.60,503.87
561.61,501.72
562.62,497.53
563.63,492.52
564.64,488.73
565.65,487.29
566.66,487.26
567.67,486.65
568.68,484.20
569.69,479.83
570.70,477.14
571.71,474.46
572.72,469.57
573.73,466.02
574.74,462.95
575.76,459.01
576.77,454.64
577.78,451.11
578.79,448.42
579.80,445.64
580.81,442.72
581.82,440.58
582.83,438.85
583.84,435.99
584.85,432.28
585.86,429.05
586.87,427.61
587.88,426.17
588.89,422.97
589.90,419.25
590.91,415.07
591.92,411.37
592.93,409.48
593.94,409.04
594.95,408.20
595.96,405.58
596.97,401.24
597.98,396.61
598.99,393.32
600.00,391.26
601.00,388.98
602.18,386.14
603.36,383.90
604.54,383.13
605.71,382.36
606.89,379.77
608.07,375.50
609.25,371.40
610.43,369.12
611.61,367.77
612.79,365.37
613.96,361.62
615.14,357.53
616.32,353.75
617.50,351.13
618.68,350.25
619.86,349.90
621.04,348.38
622.21,345.40
623.39,340.98
624.57,338.19
625.75,335.39
626.93,330.11
628.11,326.35
629.29,323.82
630.46,322.18
631.64,321.27
632.82,320.18
634.00,318.25
635.18,315.87
636.36,313.36
637.54,310.58
638.71,307.55
639.89,304.21
641.07,300.48
642.25,296.51
643.43,292.48
644.61,290.72
645.79,288.95
646.96,286.62
648.14,285.22
649.32,284.05
650.50,282.47
651.68,279.54
652.86,275.87
654.04,273.84
655.21,273.75
656.39,273.33
657.57,271.27
658.75,267.91
659.93,263.61
661.11,259.02
662.29,255.71
663.46,255.03
664.64,254.34
665.82,253.36
667.00,251.34
668.18,248.64
669.36,245.71
670.54,242.43
671.71,239.52
672.89,237.99
674.07,236.99
675.25,234.65
676.43,230.83
677.61,227.13
678.79,225.03
679.96,224.96
681.14,225.99
682.32,226.54
683.50,226.00
684.68,225.46
685.86,222.56
687.04,218.61
688.21,214.80
689.39,211.71
690.57,209.14
691.75,206.82
692.93,204.87
694.11,203.38
695.29,201.48
696.46,198.23
697.64,194.48
698.82,191.92
700.00,190.86
701.00,190.30
702.98,189.21
704.96,188.29
706.94,187.37
708.92,185.57
710.90,184.22
712.88,182.45
714.86,179.99
716.84,177.71
718.82,176.07
720.80,174.66
722.78,173.06
724.76,171.00
726.74,168.17
728.72,164.70
730.70,162.20
732.68,162.30
734.66,163.82
736.64,164.07
738.62,163.15
740.60,162.23
742.58,159.45
744.56,156.89
746.54,154.92
748.52,153.58
750.50,152.41
752.48,150.47
754.46,147.66
756.44,144.93
758.42,142.89
760.40,141.39
762.38,140.17
764.36,139.13
766.34,138.11
768.32,136.71
770.30,135.76
772.28,134.82
774.26,133.40
776.24,133.20
778.22,133.32
780.20,132.40
782.18,130.02
784.16,126.47
786.14,122.85
788.12,120.88
790.10,121.13
792.08,121.87
794.06,121.03
796.04,118.72
798.02,116.78
800.00,116.31
801.00,116.41
803.36,116.00
805.71,115.58
808.07,113.85
810.43,112.37
812.79,111.51
815.14,110.67
817.50,109.44
819.86,107.91
822.21,106.30
824.57,104.94
826.93,104.15
829.29,103.71
831.64,103.03
834.00,101.82
836.36,100.19
838.71,98.02
841.07,95.41
843.43,94.32
845.79,93.24
848.14,92.44
850.50,92.56
852.86,92.15
855.21,90.95
857.57,89.69
859.93,88.47
862.29,87.02
864.64,85.47
867.00,84.07
869.36,82.87
871.71,82.06
874.07,81.78
876.43,81.50
878.79,80.53
881.14,79.25
883.50,78.82
885.86,78.38
888.21,77.38
890.57,75.41
892.93,73.12
895.29,71.79
897.64,71.70
900.00,72.12
901.00,72.03
904.67,70.97
908.33,69.85
912.00,69.74
915.67,70.52
919.33,71.15
923.00,70.28
926.67,67.80
930.33,66.74
934.00,65.69
937.67,65.28
941.33,65.18
945.00,63.62
948.67,61.12
952.33,59.34
956.00,58.64
959.67,58.31
963.33,58.08
967.00,57.88
970.67,57.68
974.33,57.90
978.00,58.52
981.67,58.56
985.33,57.48
989.00,56.26
992.67,56.17
996.33,56.08
1000.00,56.38
1001.00,55.50
1006.10,53.55
1011.21,52.24
1016.31,51.98
1021.41,51.89
1026.51,51.51
1031.62,50.73
1036.72,49.58
1041.82,48.27
1046.92,46.79
1052.03,45.20
1057.13,43.96
1062.23,43.32
1067.33,43.12
1072.44,43.19
1077.54,43.27
1082.64,43.36
1087.74,42.68
1092.85,41.21
1097.95,39.88
1103.05,39.40
1108.15,39.25
1113.26,38.39
1118.36,37.33
1123.46,37.36
1128.56,37.92
1133.67,37.75
1138.77,37.21
1143.87,37.16
1148.97,37.60
1154.08,38.11
1159.18,38.14
1164.28,38.17
1169.38,37.13
1174.49,35.11
1179.59,33.60
1184.69,33.27
1189.79,32.91
1194.90,31.85
1200.00,31.14
1201.00,31.37
1210.06,31.67
1219.12,31.10
1228.18,29.93
1237.24,29.21
1246.30,29.26
1255.36,29.03
1264.42,28.39
1273.48,27.76
1282.55,26.65
1291.61,27.03
1300.67,28.06
1309.73,28.27
1318.79,27.63
1327.85,27.04
1336.91,27.24
1345.97,28.43
1355.03,29.58
1364.09,29.19
1373.15,27.77
1382.21,27.36
1391.27,28.24
1400.33,28.85
1409.39,28.59
1418.45,28.25
1427.52,27.92
1436.58,26.98
1445.64,25.81
1454.70,24.84
1463.76,24.30
1472.82,23.72
1481.88,22.87
1490.94,22.60
1500.00,23.45
1501.00,23.90
1510.24,22.70
1519.48,21.09
1528.72,20.80
1537.96,21.66
1547.20,22.46
1556.44,22.62
1565.69,22.54
1574.93,22.46
1584.17,22.42
1593.41,22.31
1602.65,21.56
1611.89,20.19
1621.13,19.25
1630.37,19.68
1639.61,20.95
1648.85,21.81
1658.09,21.87
1667.33,21.61
1676.57,21.33
1685.81,20.99
1695.06,20.36
1704.30,19.52
1713.54,19.37
1722.78,19.91
1732.02,20.45
1741.26,21.54
1750.50,21.01
1759.74,18.89
1768.98,16.72
1778.22,15.74
1787.46,15.99
1796.70,16.98
1805.94,18.06
1815.19,18.65
1824.43,18.84
1833.67,19.12
1842.91,19.42
1852.15,19.25
1861.39,18.85
1870.63,18.98
1879.87,19.12
1889.11,20.29
1898.35,21.09
1907.59,20.04
1916.83,17.81
1926.07,16.67
1935.31,17.64
1944.56,19.50
1953.80,20.48
1963.04,19.93
1972.28,18.53
1981.52,17.04
1990.76,15.59
2000.00,14.41
2001.00,14.52
2018.22,16.27
2035.45,17.25
2052.67,18.22
2069.90,18.79
2087.12,18.03
2104.34,17.25
2121.57,17.26
2138.79,17.64
2156.02,17.85
2173.24,18.19
2190.47,18.82
2207.69,18.98
2224.91,18.29
2242.14,17.53
2259.36,17.84
2276.59,19.84
2293.81,22.72
2311.03,24.61
2328.26,24.61
2345.48,24.61
2362.71,23.54
2379.93,22.32
2397.16,20.82
2414.38,18.87
2431.60,17.37
2448.83,17.20
2466.05,17.89
2483.28,18.41
2500.50,18.29
2517.72,17.52
2534.95,16.32
2552.17,15.07
2569.40,14.48
2586.62,15.33
2603.84,17.31
2621.07,18.18
2638.29,19.05
2655.52,19.76
2672.74,19.65
2689.97,19.01
2707.19,18.14
2724.41,17.39
2741.64,16.86
2758.86,16.72
2776.09,17.18
2793.31,17.80
2810.53,17.82
2827.76,16.85
2844.98,15.36
2862.21,14.34
2879.43,14.27
2896.66,14.41
2913.88,14.56
2931.10,14.58
2948.33,14.22
2965.55,13.77
2982.78,13.49
3000.00,13.46
3001.00,13.87
3025.99,14.84
3050.98,15.70
3075.98,15.66
3100.97,15.02
3125.96,14.21
3150.95,12.74
3175.94,10.84
3200.93,9.97
3225.93,10.81
3250.92,11.73
3275.91,12.66
3300.90,14.61
3325.89,16.05
3350.88,16.46
3375.87,15.87
3400.87,15.20
3425.86,15.53
3450.85,16.62
3475.84,16.84
3500.83,15.58
3525.82,14.41
3550.82,14.48
3575.81,14.96
3600.80,14.87
3625.79,13.95
3650.78,12.53
3675.77,12.12
3700.77,11.70
3725.76,12.27
3750.75,13.60
3775.74,14.51
3800.73,14.32
3825.73,13.34
3850.72,12.70
3875.71,12.81
3900.70,12.67
3925.69,11.89
3950.68,11.47
3975.68,11.80
4000.67,12.10
4025.66,11.95
4050.65,11.54
4075.64,11.11
4100.63,11.06
4125.62,11.02
4150.62,11.45
4175.61,11.97
4200.60,12.44
4225.59,13.49
4250.58,14.98
4275.58,15.26
4300.57,13.17
4325.56,10.17
4350.55,8.89
4375.54,9.52
4400.53,9.97
4425.52,9.46
4450.52,9.21
4475.51,10.04
4500.50,10.66
4525.49,11.28
4550.48,12.05
4575.48,12.38
4600.47,12.50
4625.46,11.99
4650.45,10.60
4675.44,9.18
4700.43,8.93
4725.42,10.01
4750.42,11.14
4775.41,11.13
4800.40,10.27
4825.39,9.77
4850.38,10.26
4875.37,10.98
4900.37,10.95
4925.36,10.78
4950.35,10.62
4975.34,11.00
5000.33,11.73
5025.33,11.85
5050.32,11.43
5075.31,11.16
5100.30,11.15
5125.29,11.24
5150.28,11.37
5175.27,11.17
5200.27,10.75
5225.26,11.05
5250.25,12.27
5275.24,13.63
5300.23,14.94
5325.23,16.20
5350.22,16.40
5375.21,16.60
5400.20,16.04
5425.19,15.64
5450.18,16.11
5475.17,16.89
5500.17,16.97
5525.16,16.07
5550.15,14.76
5575.14,13.43
5600.13,12.28
5625.12,12.80
5650.12,18.23
5675.11,32.66
5700.10,61.54
5725.09,114.19
5750.08,204.57
5775.08,276.41
5800.07,348.24
5825.06,556.48
5850.05,828.72
5875.04,1147.39
5900.03,1478.99
5925.02,1780.18
5950.02,2006.54
5975.01,2122.79
6000.00,2111.88
6024.79,1979.61
6049.64,1752.34
6074.48,1468.11
6099.32,1166.13
6124.16,879.94
6149.01,632.96
6173.85,534.41
6198.69,435.87
6223.53,288.62
6248.38,185.59
6273.22,118.78
6298.06,78.33
6322.90,54.34
6347.75,40.03
6372.59,31.72
6397.43,26.65
6422.27,22.81
6447.12,19.79
6471.96,17.92
6496.80,17.03
6521.65,16.36
6546.49,15.21
6571.33,13.82
6596.17,13.35
6621.02,12.88
6645.86,12.32
6670.70,11.82
6695.54,11.59
6720.39,11.58
6745.23,11.36
6770.07,11.36
6794.91,12.74
6819.76,15.55
6844.60,18.37
6869.44,20.03
6894.28,20.53
6919.13,20.09
6943.97,18.89
6968.81,17.35
6993.65,15.50
7018.50,14.33
7043.34,13.15
7068.18,10.84
7093.02,9.45
7117.87,8.79
7142.71,7.98
7167.55,6.94
7192.39,6.19
7217.24,5.66
7242.08,5.13
7266.92,4.85
7291.77,5.01
7316.61,5.71
7341.45,6.72
7366.29,7.12
7391.14,6.61
7415.98,5.69
7440.82,5.25
7465.66,4.80
7490.51,4.27
7515.35,4.42
7540.19,5.42
7565.03,6.97
7589.88,7.78
7614.72,7.03
7639.56,5.83
7664.40,5.47
7689.25,5.62
7714.09,5.54
7738.93,5.31
7763.77,5.09
7788.62,5.01
7813.46,5.33
7838.30,5.52
7863.14,5.72
7887.99,5.35
7912.83,4.13
7937.67,3.05
7962.51,2.82
7987.36,3.14
8012.20,3.47
8037.04,3.69
8061.89,3.91
8086.73,4.43
8111.57,5.51
8136.41,6.34
8161.26,5.46
8186.10,3.29
8210.94,1.97
8235.78,2.05
8260.63,2.11
8285.47,2.17
8310.31,1.94
8335.15,2.07
8360.00,2.51
8384.84,2.87
8409.68,3.43
8434.52,4.25
8459.37,4.81
8484.21,5.08
8509.05,5.14
8533.89,4.69
8558.74,3.90
8583.58,3.57
8608.42,4.17
8633.26,5.18
8658.11,5.48
8682.95,5.17
8707.79,4.86
8732.63,4.75
8757.48,6.00
8782.32,7.35
8807.16,7.46
8832.00,6.93
8856.85,6.86
8881.69,6.76
8906.53,5.69
8931.37,3.99
8956.22,2.74
8981.06,2.43
9005.90,2.65
9030.75,2.89
9055.59,3.54
9080.43,5.14
9105.27,5.94
9130.12,6.73
9154.96,6.88
9179.80,5.66
9204.64,4.44
9229.49,3.96
9254.33,3.76
9279.17,3.21
9304.01,2.34
9328.86,1.78
9353.70,2.03
9378.54,2.55
9403.38,2.41
9428.23,1.85
9453.07,1.76
9477.91,1.89
9502.75,1.61
9527.60,1.34
9552.44,0.78
9577.28,1.72
9602.12,3.46
9626.97,3.61
9651.81,2.24
9676.65,1.77
9701.50,2.54
9726.34,2.45
9751.18,0.87
9776.02,-0.75
9800.87,-1.14
9825.71,-0.25
9850.55,0.93
9875.39,1.46
9900.24,1.26
9925.08,0.86
9949.92,0.47
9974.76,-0.70
9999.61,-1.50
10024.45,-1.25
10049.29,-0.14
10074.13,0.91
10098.98,0.77
10123.82,-0.51
10148.66,-1.32
10173.50,-0.75
10198.35,0.44
10223.19,1.47
10248.03,2.29
10272.87,2.97
10297.72,3.30
10322.56,2.92
10347.40,2.43
10372.25,1.95
10397.09,1.09
10421.93,0.95
10446.77,1.49
10471.62,2.13
10496.46,2.61
10521.30,3.21
10546.14,3.82
10570.99,3.75
10595.83,2.94
10620.67,2.51
10645.51,3.22
10670.36,4.24
10695.20,4.44
10720.04,3.73
10744.88,2.56
10769.73,1.92
10794.57,1.29
10819.41,0.37
10844.25,0.44
10869.10,1.14
10893.94,1.03
10918.78,0.15
10943.62,0.10
10968.47,1.10
10993.31,1.95
11018.15,2.11
11043.00,1.84
11067.84,1.70
11092.68,2.10
11117.52,2.57
11142.37,2.47
11167.21,2.31
11192.05,2.15
11216.89,2.17
11241.74,2.65
11266.58,3.69
11291.42,4.75
11316.26,4.53
11341.11,2.82
11365.95,1.18
11390.79,0.85
11415.63,1.49
11440.48,2.25
11465.32,2.59
11490.16,2.59
11515.00,2.52
11539.85,2.07
11564.69,1.41
11589.53,1.52
11614.37,1.63
11639.22,2.48
11664.06,2.62
11688.90,1.98
11713.74,1.06
11738.59,0.02
11763.43,-0.72
11788.27,-1.04
11813.12,-1.38
11837.96,-1.44
11862.80,-0.63
11887.64,0.84
11912.49,2.55
11937.33,4.09
11962.17,4.49
11987.01,3.32
12011.86,2.54
12036.70,1.76
12061.54,0.71
12086.38,0.01
12111.23,-0.16
12136.07,0.53
12160.91,1.28
12185.75,1.02
12210.60,-0.01
12235.44,-0.48
12260.28,0.38
12285.12,1.95
12309.97,3.11
12334.81,3.11
12359.65,1.58
12384.49,-0.86
12409.34,-2.50
12434.18,-2.36
12459.02,-2.23
12483.86,-0.68
12508.71,0.67
12533.55,1.15
12558.39,1.29
12583.24,1.47
12608.08,1.55
12632.92,2.02
12657.76,3.68
12682.61,6.02
12707.45,7.57
12732.29,7.79
12757.13,7.42
12781.98,7.01
12806.82,6.34
12831.66,5.85
12856.50,5.36
12881.35,4.88
12906.19,5.24
12931.03,5.32
12955.87,4.48
12980.72,3.79
13005.56,3.91
13030.40,4.24
13055.24,5.14
13080.09,8.07
13104.93,13.02
13129.77,18.20
13154.61,21.92
13179.46,23.39
13204.30,23.09
13229.14,23.11
13253.98,23.85
13278.83,24.58
13303.67,26.00
13328.51,25.12
13353.35,20.60
13378.20,13.51
13403.04,7.43
13427.88,4.69
13452.73,3.95
13477.57,3.47
13502.41,3.52
13527.25,4.52
13552.10,5.41
13576.94,5.37
13601.78,4.95
13626.62,4.51
13651.47,3.73
13676.31,3.36
13701.15,2.99
13725.99,2.97
13750.84,3.27
13775.68,2.82
13800.52,1.29
13825.36,-0.41
13850.21,-0.80
13875.05,0.30
13899.89,1.31
13924.73,1.53
13949.58,1.86
13974.42,2.32
13999.26,1.70
14024.10,0.06
14048.95,-0.99
14073.79,-0.78
14098.63,-0.53
14123.47,-0.28
14148.32,0.25
14173.16,1.52
14198.00,2.90
14222.85,3.01
14247.69,2.23
14272.53,1.78
14297.37,1.53
14322.22,1.14
14347.06,1.27
14371.90,1.54
14396.74,0.46
14421.59,-1.43
14446.43,-2.10
14471.27,-1.27
14496.11,-0.83
14520.96,-0.39
14545.80,-0.37
14570.64,-0.56
14595.48,-0.09
14620.33,0.54
14645.17,0.63
14670.01,0.84
14694.85,1.71
14719.70,2.25
14744.54,1.47
14769.38,0.27
14794.22,-0.04
14819.07,0.40
14843.91,0.84
14868.75,1.18
14893.59,1.76
14918.44,2.27
14943.28,2.78
14968.12,3.86
14992.97,4.20
15017.81,3.72
15042.65,2.99
15067.49,2.29
15092.34,2.09
15117.18,3.04
15142.02,4.36
15166.86,4.39
15191.71,3.39
15216.55,3.22
15241.39,4.30
15266.23,5.04
15291.08,4.27
15315.92,2.64
15340.76,1.95
15365.60,1.26
15390.45,0.45
15415.29,0.09
15440.13,0.35
15464.97,1.11
15489.82,1.93
15514.66,2.66
15539.50,3.35
15564.34,3.62
15589.19,3.26
15614.03,2.64
15638.87,2.16
15663.71,2.16
15688.56,2.76
15713.40,3.41
15738.24,3.51
15763.08,3.28
15787.93,3.06
15812.77,2.54
15837.61,2.27
15862.46,2.16
15887.30,2.19
15912.14,2.24
15936.98,1.91
15961.83,1.27
15986.67,1.01
16011.51,1.40
16036.35,1.97
16061.20,2.38
16086.04,2.74
16110.88,2.85
16135.72,2.44
16160.57,2.18
16185.41,1.92
16210.25,1.57
16235.09,1.20
16259.94,1.03
16284.78,1.66
16309.62,2.74
16334.46,3.15
16359.31,2.32
16384.15,0.77
16408.99,-0.58
16433.84,-1.41
16458.68,-1.99
16483.52,-2.52
16508.36,-2.54
16533.21,-1.56
16558.05,-0.46
16582.89,-0.51
16607.73,-0.55
16632.58,-0.90
16657.42,0.32
16682.26,2.56
16707.10,3.75
16731.95,3.35
16756.79,2.54
16781.63,2.10
16806.47,1.66
16831.32,1.09
16856.16,1.09
16881.00,1.78
16905.84,2.20
16930.69,2.11
16955.53,2.13
16980.37,2.10
17005.21,1.75
17030.06,1.40
17054.90,0.37
17079.74,-0.13
17104.58,0.03
17129.43,0.28
17154.27,0.27
17179.11,-0.04
17203.96,-0.98
17228.80,-2.43
17253.64,-2.93
17278.48,-1.66
17303.33,0.11
17328.17,1.36
17353.01,2.31
17377.85,2.72
17402.70,1.99
17427.54,1.00
17452.38,0.01
17477.22,-2.87
17502.07,-5.01
17526.91,-4.66
17551.75,-2.56
17576.59,-0.67
17601.44,0.38
17626.28,0.88
17651.12,1.07
17675.96,0.88
17700.81,0.21
17725.65,-0.55
17750.49,-0.83
17775.33,-0.66
17800.18,-0.58
17825.02,-0.78
17849.86,-0.98
17874.71,-1.67
17899.55,-1.80
17924.39,-0.82
17949.23,0.56
17974.07,1.06
17998.92,0.48
18023.76,-0.36
18048.60,-0.75
18073.45,-0.73
18098.29,-0.85
18123.13,-1.33
18147.97,-1.83
18172.82,-1.78
18197.66,-0.81
18222.50,0.49
18247.34,0.56
18272.19,0.63
18297.03,-0.81
18321.87,-2.40
18346.71,-3.05
18371.56,-3.18
18396.40,-3.21
18421.24,-3.00
18446.08,-2.39
18470.93,-1.20
18495.77,0.21
18520.61,0.80
18545.46,0.29
