Size (bp),Intensity
0.58,1646.34
1.00,1414.34
2.00,970.45
2.42,543.91
2.84,264.41
3.26,128.14
3.68,75.95
4.10,60.14
4.52,57.44
4.94,58.42
5.36,59.39
5.79,58.85
6.21,55.98
6.63,53.41
7.05,50.83
7.47,44.79
7.89,39.16
8.31,34.02
8.73,28.91
9.15,24.17
9.57,20.48
9.99,17.68
10.41,15.45
10.83,14.23
11.25,14.01
11.67,13.36
12.09,11.43
12.52,9.24
12.94,7.95
13.36,7.31
13.78,6.68
14.20,6.20
14.62,6.06
15.04,5.90
15.46,5.60
15.88,5.65
16.30,6.22
16.72,7.08
17.14,8.11
17.56,9.01
17.98,9.18
18.40,8.62
18.82,8.29
19.24,7.96
19.67,7.38
20.09,6.65
20.51,6.10
20.93,6.38
21.35,7.41
21.77,8.33
22.19,8.44
22.61,7.97
23.03,7.68
23.45,7.96
23.87,8.55
24.29,9.18
24.71,9.96
25.13,10.68
25.55,10.56
25.97,9.70
26.39,9.08
26.82,9.04
27.24,9.06
27.66,8.51
28.08,7.41
28.50,6.51
28.92,6.27
29.34,6.30
29.76,6.06
30.18,5.48
30.60,4.97
31.02,5.17
31.44,5.37
31.86,7.29
32.28,10.17
32.70,12.41
33.12,13.01
33.55,12.66
33.97,12.41
34.39,11.91
34.81,10.53
35.23,8.92
35.65,8.22
36.07,8.37
36.49,8.37
36.91,8.09
37.33,8.44
37.75,9.50
38.17,10.21
38.59,10.28
39.01,10.64
39.43,11.62
39.85,12.70
40.27,13.65
40.70,14.42
41.12,14.63
41.54,14.44
41.96,14.49
42.38,14.61
42.80,14.23
43.22,13.85
43.64,12.20
44.06,11.09
44.48,11.18
44.90,11.51
45.32,11.21
45.74,10.54
46.16,9.94
46.58,9.61
47.00,9.74
47.42,10.19
47.85,10.44
48.27,10.06
48.69,8.78
49.11,6.73
49.53,4.87
49.95,3.87
50.37,3.51
50.79,3.60
51.21,3.86
51.63,3.56
52.05,2.72
52.47,2.51
52.89,3.61
53.31,4.89
53.73,4.96
54.15,4.32
54.58,4.52
55.00,5.08
55.42,5.65
55.84,6.22
56.26,5.63
56.68,4.84
57.10,4.65
57.52,4.72
57.94,4.67
58.36,4.67
58.78,4.70
59.20,4.49
59.62,4.25
60.04,4.55
60.46,5.25
60.88,5.48
61.30,4.87
61.73,4.01
62.15,3.39
62.57,2.78
62.99,2.26
63.41,2.62
63.83,4.07
64.25,5.68
64.67,6.55
65.09,6.83
65.51,6.98
65.93,7.06
66.35,7.20
66.77,7.74
67.19,8.07
67.61,8.40
68.03,8.24
68.45,6.94
68.88,5.50
69.30,5.16
69.72,5.70
70.14,6.00
70.56,5.70
70.98,5.25
71.40,5.04
71.82,5.18
72.24,5.26
72.66,4.96
73.08,4.55
73.50,4.25
73.92,4.17
74.34,4.53
74.76,5.15
75.18,5.68
75.61,5.99
76.03,5.91
76.45,5.68
76.87,5.85
77.29,6.03
77.71,5.61
78.13,5.08
78.55,4.92
78.97,4.84
79.39,4.76
79.81,4.51
80.23,4.49
80.65,4.49
81.07,4.16
81.49,3.80
81.91,3.91
82.33,4.45
82.76,4.67
83.18,4.12
83.60,3.64
84.02,4.04
84.44,5.09
84.86,6.23
85.28,6.97
85.70,6.75
86.12,5.61
86.54,4.47
86.96,4.09
87.38,4.37
87.80,4.68
88.22,4.64
88.64,4.28
89.06,3.77
89.48,3.44
89.91,3.63
90.33,4.13
90.75,4.17
91.17,3.66
91.59,3.16
92.01,1.34
92.43,-0.21
92.85,-0.66
93.27,-0.01
93.69,1.23
94.11,2.19
94.53,2.61
94.95,3.16
95.37,3.77
95.79,3.39
96.21,2.12
96.64,1.26
97.06,1.31
97.48,1.56
97.90,1.46
98.32,1.26
98.74,1.27
99.16,1.43
99.58,1.55
100.00,1.75
101.00,2.06
101.52,2.22
102.04,2.42
102.56,3.17
103.08,4.05
103.61,4.38
104.13,4.29
104.65,4.14
105.17,4.00
105.69,3.41
106.21,2.55
106.73,1.53
107.25,0.64
107.77,0.48
108.29,0.93
108.82,1.01
109.34,0.57
109.86,0.35
110.38,0.32
110.90,0.08
111.42,0.05
111.94,0.53
112.46,1.11
112.98,1.60
113.51,2.23
114.03,2.54
114.55,1.87
115.07,0.75
115.59,0.30
116.11,0.45
116.63,0.53
117.15,0.44
117.67,0.62
118.19,1.15
118.72,1.34
119.24,1.13
119.76,0.93
120.28,0.43
120.80,0.10
121.32,0.25
121.84,1.16
122.36,2.20
122.88,2.97
123.41,3.68
123.93,3.87
124.45,3.03
124.97,2.24
125.49,2.62
126.01,3.16
126.53,2.53
127.05,1.45
127.57,1.27
128.09,1.67
128.62,1.61
129.14,0.90
129.66,0.28
130.18,0.34
130.70,0.80
131.22,1.05
131.74,1.14
132.26,1.49
132.78,1.91
133.31,2.03
133.83,1.95
134.35,1.87
134.87,1.79
135.39,1.54
135.91,1.34
136.43,1.15
136.95,0.74
137.47,0.14
137.99,-0.22
138.52,0.14
139.04,0.95
139.56,1.14
140.08,0.40
140.60,-0.07
141.12,0.45
141.64,1.12
142.16,1.33
142.68,1.28
143.21,0.86
143.73,0.14
144.25,-0.24
144.77,-0.05
145.29,0.45
145.81,0.99
146.33,1.30
146.85,1.44
147.37,1.63
147.89,1.46
148.42,0.63
148.94,-0.03
149.46,0.14
149.98,0.31
150.50,1.17
151.02,1.45
151.54,0.85
152.06,0.12
152.58,-0.07
153.11,0.08
153.63,0.11
154.15,0.20
154.67,0.84
155.19,1.94
155.71,2.86
156.23,3.04
156.75,2.38
157.27,1.38
157.79,0.68
158.32,0.46
158.84,0.82
159.36,1.88
159.88,2.86
160.40,2.48
160.92,1.00
161.44,0.14
161.96,0.79
162.48,2.10
163.01,2.80
163.53,2.82
164.05,2.98
164.57,3.14
165.09,3.99
165.61,4.25
166.13,3.53
166.65,2.82
167.17,2.89
167.69,3.32
168.22,3.37
168.74,2.65
169.26,1.27
169.78,-0.03
170.30,-0.06
170.82,1.36
171.34,2.90
171.86,3.59
172.38,3.70
172.91,3.70
173.43,3.88
173.95,4.46
174.47,4.86
174.99,4.49
175.51,4.16
176.03,4.77
176.55,5.42
177.07,5.01
177.59,4.09
178.12,3.84
178.64,4.45
179.16,4.85
179.68,5.26
180.20,5.61
180.72,5.13
181.24,4.08
181.76,3.44
182.28,3.70
182.81,4.43
183.33,5.15
183.85,5.82
184.37,6.57
184.89,7.22
185.41,7.32
185.93,7.03
186.45,7.39
186.97,8.56
187.49,9.48
188.02,9.64
188.54,9.51
189.06,9.63
189.58,10.32
190.10,11.29
190.62,11.72
191.14,11.57
191.66,11.52
192.18,11.87
192.71,12.48
193.23,13.12
193.75,13.53
194.27,13.58
194.79,13.63
195.31,13.70
195.83,13.96
196.35,14.44
196.87,14.88
197.39,15.05
197.92,15.11
198.44,15.09
198.96,14.65
199.48,13.89
200.00,13.53
201.00,13.91
201.59,14.51
202.17,14.80
202.76,15.14
203.34,15.92
203.93,16.50
204.51,15.97
205.10,14.72
205.69,13.85
206.27,13.67
206.86,13.91
207.44,14.51
208.03,15.29
208.62,15.91
209.20,16.00
209.79,15.80
210.37,15.77
210.96,15.75
211.54,15.29
212.13,13.79
212.72,11.84
213.30,10.52
213.89,10.49
214.47,11.44
215.06,12.35
215.64,12.66
216.23,12.56
216.82,12.19
217.40,11.68
217.99,11.46
218.57,11.67
219.16,11.91
219.75,11.74
220.33,11.32
220.92,11.43
221.50,12.36
222.09,13.50
222.67,14.12
223.26,14.14
223.85,13.95
224.43,13.93
225.02,14.10
225.60,14.37
226.19,14.97
226.78,16.35
227.36,17.42
227.95,18.49
228.53,20.86
229.12,22.62
229.70,23.12
230.29,22.89
230.88,23.01
231.46,23.32
232.05,23.22
232.63,23.15
233.22,23.43
233.80,23.78
234.39,24.20
234.98,25.05
235.56,26.67
236.15,28.95
236.73,30.98
237.32,32.35
237.91,34.07
238.49,36.65
239.08,39.00
239.66,40.30
240.25,40.97
240.83,41.94
241.42,43.76
242.01,46.09
242.59,48.06
243.18,49.34
243.76,50.08
244.35,50.37
244.93,50.66
245.52,51.93
246.11,54.60
246.69,58.27
247.28,62.14
247.86,65.89
248.45,69.12
249.04,71.62
249.62,73.85
250.21,75.82
250.79,76.99
251.38,78.10
251.96,80.94
252.55,86.72
253.14,95.89
253.72,108.11
254.31,121.54
254.89,133.37
255.48,141.27
256.07,144.88
256.65,145.99
257.24,146.64
257.82,146.86
258.41,145.16
258.99,141.03
259.58,135.78
260.17,131.98
260.75,132.43
261.34,132.88
261.92,140.23
262.51,152.85
263.09,169.22
263.68,189.86
264.27,216.17
264.85,248.31
265.44,284.53
266.02,322.07
266.61,358.95
267.20,395.03
267.78,431.82
268.37,471.13
268.95,513.19
269.54,555.52
270.12,593.47
270.71,624.30
271.30,653.01
271.88,692.57
272.47,757.50
273.05,857.73
273.64,994.62
274.22,1159.97
274.81,1339.91
275.40,1519.46
275.98,1687.56
276.57,1843.28
277.15,1995.11
277.74,2074.29
278.33,2153.48
278.91,2328.96
279.50,2537.79
280.08,2805.26
280.67,3163.26
281.25,3641.43
281.84,4257.25
282.43,5039.02
283.01,6112.87
283.60,7768.23
284.18,10297.14
284.77,13583.20
285.36,16824.32
285.94,18806.15
286.53,18624.04
287.11,16287.52
287.70,12694.53
288.28,9001.72
288.87,5977.59
289.46,3833.48
290.04,2438.11
290.63,1567.35
291.21,1033.71
291.80,715.24
292.38,536.40
292.97,444.52
293.56,401.49
294.14,383.16
294.73,379.74
295.31,376.31
295.90,373.87
296.49,371.39
297.07,365.39
297.66,353.79
298.24,336.02
298.83,312.13
299.41,283.40
300.00,253.44
301.00,226.94
301.70,206.62
302.39,192.09
303.09,181.75
303.79,174.85
304.49,171.23
305.18,170.16
305.88,170.35
306.58,170.40
307.27,169.05
307.97,165.03
308.67,157.67
309.37,148.05
310.06,138.29
310.76,129.70
311.46,122.07
312.15,114.49
312.85,106.44
313.55,102.36
314.25,98.27
314.94,90.22
315.64,81.61
316.34,71.73
317.04,61.50
317.73,52.92
318.43,46.76
319.13,41.78
319.82,36.51
320.52,31.21
321.22,27.32
321.92,25.47
322.61,24.85
323.31,24.09
324.01,22.75
324.70,21.43
325.40,20.48
326.10,19.53
326.80,18.52
327.49,17.77
328.19,17.36
328.89,17.10
329.58,16.66
330.28,15.89
330.98,14.75
331.68,13.47
332.37,12.65
333.07,12.37
333.77,12.19
334.46,12.01
335.16,11.62
335.86,11.83
336.56,12.53
337.25,13.00
337.95,12.98
338.65,12.92
339.35,13.45
340.04,14.51
340.74,15.28
341.44,15.21
342.13,14.13
342.83,11.85
343.53,8.83
344.23,5.99
344.92,3.80
345.62,2.34
346.32,1.45
347.01,1.20
347.71,2.09
348.41,3.80
349.11,5.02
349.80,4.97
350.50,4.13
351.20,3.38
351.89,3.28
352.59,3.98
353.29,5.09
353.99,5.40
354.68,5.71
355.38,5.35
356.08,4.27
356.77,2.90
357.47,1.96
358.17,2.32
358.87,3.55
359.56,4.30
360.26,4.19
360.96,4.00
361.65,4.17
362.35,3.99
363.05,2.76
363.75,1.18
364.44,0.66
365.14,1.55
365.84,3.02
366.54,3.97
367.23,3.78
367.93,2.78
368.63,1.75
369.32,1.03
370.02,0.73
370.72,1.21
371.42,2.52
372.11,3.77
372.81,4.14
373.51,4.12
374.20,4.09
374.90,4.30
375.60,4.40
376.30,4.03
376.99,3.60
377.69,3.45
378.39,3.22
379.08,2.97
379.78,3.33
380.48,4.44
381.18,5.55
381.87,5.65
382.57,4.37
383.27,2.51
383.96,1.24
384.66,0.85
385.36,0.99
386.06,1.36
386.75,1.69
387.45,1.67
388.15,1.31
388.85,0.84
389.54,0.37
390.24,0.15
390.94,0.53
391.63,1.29
392.33,2.01
393.03,2.50
393.73,2.60
394.42,2.69
395.12,2.56
395.82,2.28
396.51,1.98
397.21,1.62
397.91,1.00
398.61,0.26
399.30,0.07
400.00,0.74
401.00,1.80
401.72,2.80
402.45,3.91
403.17,5.08
403.89,5.30
404.61,3.86
405.34,1.71
406.06,0.35
406.78,0.15
407.50,0.68
408.23,1.49
408.95,2.08
409.67,2.49
410.39,3.47
411.12,5.00
411.84,5.98
412.56,6.03
413.28,5.62
414.01,5.05
414.73,4.88
415.45,4.71
416.18,4.96
416.90,5.13
417.62,4.28
418.34,2.92
419.07,2.34
419.79,2.84
420.51,3.57
421.23,3.76
421.96,3.59
422.68,3.74
423.40,4.07
424.12,3.66
424.85,2.45
425.57,1.31
426.29,0.48
427.01,-0.43
427.74,-1.24
428.46,-1.19
429.18,0.16
429.91,2.15
430.63,3.41
431.35,3.86
432.07,4.52
432.80,5.17
433.52,4.67
434.24,3.28
434.96,2.53
435.69,2.81
436.41,3.09
437.13,4.15
437.85,4.65
438.58,4.43
439.30,3.89
440.02,3.25
440.74,2.80
441.47,2.76
442.19,2.53
442.91,1.64
443.64,0.79
444.36,0.38
445.08,0.01
445.80,-0.12
446.53,0.69
447.25,2.44
447.97,4.41
448.69,5.58
449.42,5.32
450.14,4.15
450.86,3.17
451.58,3.04
452.31,3.72
453.03,4.60
453.75,4.99
454.47,4.67
455.20,3.69
455.92,3.05
456.64,2.40
457.36,1.78
458.09,2.35
458.81,3.31
459.53,3.40
460.26,2.60
460.98,1.75
461.70,1.22
462.42,1.00
463.15,1.19
463.87,1.40
464.59,1.11
465.31,0.51
466.04,0.37
466.76,1.35
467.48,3.32
468.20,4.69
468.93,4.07
469.65,2.41
470.37,1.92
471.09,3.17
471.82,4.68
472.54,4.95
473.26,4.04
473.99,3.48
474.71,4.30
475.43,5.75
476.15,6.57
476.88,6.57
477.60,6.58
478.32,6.27
479.04,5.59
479.77,4.12
480.49,2.25
481.21,1.40
481.93,2.20
482.66,3.26
483.38,2.99
484.10,1.77
484.82,1.10
485.55,1.14
486.27,0.95
486.99,0.45
487.72,0.25
488.44,0.56
489.16,1.32
489.88,2.04
490.61,2.21
491.33,2.36
492.05,2.99
492.77,3.41
493.50,3.06
494.22,2.40
494.94,2.17
495.66,2.56
496.39,3.01
497.11,2.80
497.83,2.46
498.55,2.11
499.28,1.88
500.00,2.53
501.00,3.45
502.01,3.65
503.02,3.00
504.03,2.40
505.04,2.26
506.05,1.80
507.06,0.87
508.07,0.18
509.08,-0.20
510.09,-0.59
511.10,-0.73
512.11,-0.67
513.12,-0.99
514.13,-1.50
515.14,-1.77
516.15,-2.04
517.16,-2.26
518.17,-1.92
519.18,-1.26
520.19,-0.90
521.20,-0.83
522.21,-0.78
523.22,-0.61
524.23,-0.07
525.24,0.42
526.26,0.92
527.27,1.88
528.28,2.13
529.29,1.32
530.30,-0.07
531.31,-1.05
532.32,-1.23
533.33,-1.41
534.34,-2.28
535.35,-3.30
536.36,-3.29
537.37,-2.26
538.38,-1.32
539.39,-0.78
540.40,0.05
541.41,1.39
542.42,2.69
543.43,3.05
544.44,2.18
545.45,1.09
546.46,0.76
547.47,0.99
548.48,1.30
549.49,1.82
550.50,2.66
551.51,3.28
552.52,2.87
553.53,1.45
554.54,0.76
555.55,0.06
556.56,-0.36
557.57,0.24
558.58,1.40
559.59,2.35
560.60,2.35
561.61,1.61
562.62,1.30
563.63,1.62
564.64,1.44
565.65,0.28
566.66,-0.79
567.67,-0.85
568.68,-0.26
569.69,0.16
570.70,0.13
571.71,0.14
572.72,0.81
573.73,1.87
574.74,2.42
575.76,2.11
576.77,1.29
577.78,0.26
578.79,-0.76
579.80,-1.12
580.81,-0.54
581.82,0.13
582.83,0.08
583.84,-0.14
584.85,-0.36
585.86,-0.47
586.87,-0.03
587.88,0.76
588.89,1.65
589.90,2.41
590.91,2.77
591.92,2.41
592.93,1.55
593.94,1.05
594.95,1.36
595.96,1.87
596.97,1.75
597.98,0.85
598.99,-0.22
600.00,-0.76
601.00,-0.53
602.18,0.10
603.36,0.86
604.54,1.61
605.71,1.69
606.89,0.65
608.07,-0.58
609.25,-0.54
610.43,0.68
611.61,1.27
612.79,0.47
613.96,-0.09
615.14,-0.65
616.32,-1.32
617.50,-1.64
618.68,-1.44
619.86,-0.36
621.04,1.14
622.21,2.07
623.39,2.37
624.57,2.74
625.75,3.32
626.93,3.72
628.11,4.13
629.29,4.78
630.46,5.03
631.64,4.20
632.82,2.72
634.00,1.45
635.18,0.98
636.36,1.35
637.54,1.79
638.71,1.36
639.89,0.28
641.07,-0.31
642.25,0.06
643.43,0.50
644.61,0.22
645.79,-0.18
646.96,-0.02
648.14,0.15
649.32,0.32
650.50,0.58
651.68,0.99
652.86,1.39
654.04,1.50
655.21,1.41
656.39,1.28
657.57,1.23
658.75,1.35
659.93,1.53
661.11,1.54
662.29,1.51
663.46,1.86
664.64,2.74
665.82,3.60
667.00,4.06
668.18,4.28
669.36,4.26
670.54,3.92
671.71,3.32
672.89,2.52
674.07,1.85
675.25,1.96
676.43,2.71
677.61,3.22
678.79,3.41
679.96,3.86
681.14,4.56
682.32,4.75
683.50,4.95
684.68,4.90
685.86,4.93
687.04,5.44
688.21,6.19
689.39,6.49
690.57,5.94
691.75,5.34
692.93,5.87
694.11,7.14
695.29,7.98
696.46,8.13
697.64,7.65
698.82,6.88
700.00,6.72
701.00,7.19
702.98,7.49
704.96,7.42
706.94,7.17
708.92,6.59
710.90,5.85
712.88,5.70
714.86,6.38
716.84,7.46
718.82,8.54
720.80,9.39
722.78,9.95
724.76,10.16
726.74,10.37
728.72,10.58
730.70,10.23
732.68,9.46
734.66,9.01
736.64,9.45
738.62,10.22
740.60,10.02
742.58,8.58
744.56,7.22
746.54,6.77
748.52,6.50
750.50,5.82
752.48,5.28
754.46,5.20
756.44,5.30
758.42,5.83
760.40,7.10
762.38,8.14
764.36,7.83
766.34,6.64
768.32,5.67
770.30,4.86
772.28,3.81
774.26,3.07
776.24,3.29
778.22,4.07
780.20,4.57
782.18,4.61
784.16,4.66
786.14,4.78
788.12,5.16
790.10,5.75
792.08,6.28
794.06,6.29
796.04,5.79
798.02,5.13
800.00,4.51
801.00,4.04
803.36,3.58
805.71,2.77
808.07,1.89
810.43,1.58
812.79,1.92
815.14,3.03
817.50,4.92
819.86,6.68
822.21,7.37
824.57,6.90
826.93,5.44
829.29,3.33
831.64,1.34
834.00,0.11
836.36,-0.05
838.71,0.85
841.07,1.98
843.43,2.63
845.79,2.88
848.14,3.13
850.50,3.80
852.86,4.53
855.21,5.00
857.57,4.86
859.93,4.47
862.29,4.61
864.64,5.25
867.00,5.67
869.36,5.49
871.71,4.72
874.07,3.49
876.43,2.49
878.79,2.36
881.14,2.47
883.50,1.98
885.86,1.25
888.21,0.78
890.57,0.56
892.93,0.82
895.29,1.88
897.64,3.32
900.00,4.41
901.00,4.78
904.67,4.20
908.33,2.81
912.00,1.76
915.67,1.97
919.33,2.18
923.00,3.38
926.67,3.70
930.33,2.79
934.00,1.75
937.67,1.24
941.33,0.94
945.00,0.95
948.67,1.75
952.33,2.87
956.00,3.39
959.67,2.92
963.33,1.51
967.00,-0.18
970.67,-0.98
974.33,-0.70
978.00,-0.37
981.67,-0.66
985.33,-1.27
989.00,-1.60
992.67,-1.10
996.33,0.24
1000.00,1.74
1001.00,2.91
1006.10,3.75
1011.21,3.94
1016.31,3.33
1021.41,2.55
1026.51,2.14
1031.62,1.73
1036.72,0.54
1041.82,-0.55
1046.92,-0.88
1052.03,-0.60
1057.13,-0.20
1062.23,0.10
1067.33,0.19
1072.44,-0.01
1077.54,-0.59
1082.64,-1.47
1087.74,-2.14
1092.85,-2.00
1097.95,-1.35
1103.05,-1.35
1108.15,-2.32
1113.26,-3.06
1118.36,-2.79
1123.46,-2.31
1128.56,-2.31
1133.67,-2.31
1138.77,-1.68
1143.87,-0.77
1148.97,-0.58
1154.08,-1.20
1159.18,-1.54
1164.28,-1.00
1169.38,-0.18
1174.49,-0.07
1179.59,0.05
1184.69,-0.27
1189.79,-0.64
1194.90,-0.97
1200.00,-1.16
1201.00,-1.08
1210.06,-1.09
1219.12,-1.12
1228.18,-0.73
1237.24,-0.64
1246.30,-1.64
1255.36,-2.47
1264.42,-1.60
1273.48,0.25
1282.55,1.25
1291.61,0.85
1300.67,-0.07
1309.73,-0.67
1318.79,-0.68
1327.85,-0.22
1336.91,0.27
1345.97,0.47
1355.03,0.69
1364.09,0.73
1373.15,0.07
1382.21,-0.60
1391.27,-0.18
1400.33,0.44
1409.39,1.05
1418.45,2.08
1427.52,2.53
1436.58,2.60
1445.64,2.36
1454.70,1.58
1463.76,0.18
1472.82,-1.24
1481.88,-1.96
1490.94,-1.63
1500.00,-0.59
1501.00,0.44
1510.24,1.22
1519.48,1.88
1528.72,2.16
1537.96,1.78
1547.20,0.93
1556.44,0.23
1565.69,0.20
1574.93,0.60
1584.17,0.80
1593.41,0.72
1602.65,0.75
1611.89,0.99
1621.13,1.09
1630.37,0.98
1639.61,0.98
1648.85,0.98
1658.09,0.77
1667.33,0.56
1676.57,0.20
1685.81,0.66
1695.06,1.60
1704.30,2.10
1713.54,1.81
1722.78,1.12
1732.02,0.70
1741.26,0.79
1750.50,1.04
1759.74,1.10
1768.98,1.15
1778.22,1.57
1787.46,2.30
1796.70,2.75
1805.94,2.42
1815.19,1.61
1824.43,1.28
1833.67,1.72
1842.91,1.96
1852.15,1.45
1861.39,0.88
1870.63,1.02
1879.87,1.66
1889.11,2.07
1898.35,1.88
1907.59,1.61
1916.83,1.98
1926.07,2.35
1935.31,2.72
1944.56,2.71
1953.80,1.88
1963.04,1.51
1972.28,1.93
1981.52,1.91
1990.76,1.19
2000.00,1.16
2001.00,2.23
2018.22,2.97
2035.45,2.56
2052.67,1.93
2069.90,1.71
2087.12,1.60
2104.34,1.52
2121.57,1.46
2138.79,1.13
2156.02,0.61
2173.24,0.39
2190.47,0.72
2207.69,1.31
2224.91,1.79
2242.14,2.07
2259.36,2.02
2276.59,1.54
2293.81,1.08
2311.03,1.38
2328.26,1.92
2345.48,2.47
2362.71,3.91
2379.93,5.31
2397.16,6.01
2414.38,5.29
2431.60,3.70
2448.83,2.70
2466.05,2.68
2483.28,2.54
2500.50,1.46
2517.72,0.30
2534.95,0.48
2552.17,1.94
2569.40,3.25
2586.62,3.46
2603.84,2.85
2621.07,2.29
2638.29,2.04
2655.52,1.50
2672.74,0.57
2689.97,0.10
2707.19,0.69
2724.41,1.78
2741.64,2.36
2758.86,2.10
2776.09,1.54
2793.31,1.07
2810.53,0.82
2827.76,0.95
2844.98,1.08
2862.21,1.74
2879.43,2.20
2896.66,2.53
2913.88,3.01
2931.10,3.50
2948.33,4.17
2965.55,5.49
2982.78,6.96
3000.00,7.35
3001.00,6.13
3025.99,3.82
3050.98,1.77
3075.98,1.45
3100.97,2.65
3125.96,3.51
3150.95,3.25
3175.94,2.93
3200.93,3.38
3225.93,4.15
3250.92,4.38
3275.91,3.69
3300.90,2.50
3325.89,1.67
3350.88,1.64
3375.87,2.29
3400.87,3.51
3425.86,5.15
3450.85,5.80
3475.84,6.45
3500.83,6.18
3525.82,4.24
3550.82,2.13
3575.81,0.97
3600.80,0.50
3625.79,0.26
3650.78,0.07
3675.77,-0.40
3700.77,-1.40
3725.76,-2.46
3750.75,-2.38
3775.74,-0.67
3800.73,1.55
3825.73,3.05
3850.72,3.92
3875.71,4.48
3900.70,4.22
3925.69,2.60
3950.68,0.29
3975.68,-1.01
4000.67,-0.20
4025.66,1.80
4050.65,3.19
4075.64,3.16
4100.63,2.19
4125.62,1.36
4150.62,1.36
4175.61,1.36
4200.60,1.93
4225.59,2.26
4250.58,1.63
4275.58,0.37
4300.57,-0.17
4325.56,0.66
4350.55,1.88
4375.54,2.55
4400.53,2.55
4425.52,1.95
4450.52,1.23
4475.51,1.12
4500.50,1.52
4525.49,1.74
4550.48,1.72
4575.48,1.91
4600.47,2.19
4625.46,2.02
4650.45,1.28
4675.44,0.42
4700.43,-0.21
4725.42,-0.15
4750.42,1.23
4775.41,3.30
4800.40,4.60
4825.39,5.14
4850.38,6.05
4875.37,6.75
4900.37,7.45
4925.36,9.00
4950.35,10.82
4975.34,12.73
5000.33,13.88
5025.33,14.23
5050.32,14.65
5075.31,15.69
5100.30,17.08
5125.29,17.80
5150.28,16.83
5175.27,14.80
5200.27,13.64
5225.26,13.98
5250.25,14.29
5275.24,13.16
5300.23,11.37
5325.23,10.44
5350.22,10.19
5375.21,9.47
5400.20,8.48
5425.19,8.37
5450.18,9.48
5475.17,11.10
5500.17,12.43
5525.16,13.18
5550.15,13.52
5575.14,13.74
5600.13,13.93
5625.12,14.11
5650.12,15.38
5675.11,19.23
5700.10,28.56
5725.09,48.42
5750.08,87.71
5775.08,158.37
5800.07,271.13
5825.06,431.93
5850.05,639.65
5875.04,882.07
5900.03,1133.17
5925.02,1357.53
5950.02,1518.55
5975.01,1587.59
6000.00,1553.62
6024.79,1426.45
6049.64,1230.98
6074.48,999.54
6099.32,764.90
6124.16,553.14
6149.01,379.63
6173.85,248.56
6198.69,155.75
6223.53,93.76
6248.38,55.31
6273.22,33.60
6298.06,28.01
6322.90,22.41
6347.75,16.40
6372.59,12.27
6397.43,9.41
6422.27,7.97
6447.12,7.25
6471.96,6.53
6496.80,6.12
6521.65,6.70
6546.49,7.98
6571.33,8.74
6596.17,8.37
6621.02,7.43
6645.86,6.55
6670.70,5.86
6695.54,5.53
6720.39,5.80
6745.23,6.42
6770.07,6.65
6794.91,5.96
6819.76,4.71
6844.60,3.72
6869.44,3.36
6894.28,3.49
6919.13,3.78
6943.97,3.61
6968.81,2.51
6993.65,0.92
7018.50,0.22
7043.34,-0.47
7068.18,-1.26
7093.02,-1.27
7117.87,-0.82
7142.71,-0.54
7167.55,-0.68
7192.39,-0.86
7217.24,-0.75
7242.08,-0.67
7266.92,-1.13
7291.77,-2.07
7316.61,-2.79
7341.45,-2.66
7366.29,-1.74
7391.14,-0.68
7415.98,-0.36
7440.82,-1.05
7465.66,-2.22
7490.51,-3.06
7515.35,-2.75
7540.19,-1.32
7565.03,-0.04
7589.88,0.32
7614.72,0.35
7639.56,0.57
7664.40,0.74
7689.25,0.75
7714.09,0.89
7738.93,0.88
7763.77,0.87
7788.62,0.14
7813.46,-0.91
7838.30,-1.82
7863.14,-2.77
7887.99,-3.35
7912.83,-3.14
7937.67,-2.79
7962.51,-2.94
7987.36,-3.36
8012.20,-3.39
8037.04,-2.52
8061.89,-1.29
8086.73,-0.82
8111.57,-1.46
8136.41,-2.70
8161.26,-3.67
8186.10,-3.65
8210.94,-2.83
8235.78,-2.09
8260.63,-2.10
8285.47,-2.86
8310.31,-3.82
8335.15,-3.99
8360.00,-3.07
8384.84,-1.85
8409.68,-1.09
8434.52,-0.89
8459.37,-0.68
8484.21,-0.55
8509.05,-1.05
8533.89,-2.06
8558.74,-2.71
8583.58,-2.38
8608.42,-1.32
8633.26,-0.35
8658.11,-0.48
8682.95,-1.78
8707.79,-3.01
8732.63,-3.40
8757.48,-3.50
8782.32,-3.52
8807.16,-2.99
8832.00,-2.21
8856.85,-1.91
8881.69,-2.01
8906.53,-1.95
8931.37,-1.67
8956.22,-1.57
8981.06,-1.95
9005.90,-2.58
9030.75,-2.94
9055.59,-2.88
9080.43,-2.74
9105.27,-2.71
9130.12,-2.80
9154.96,-3.07
9179.80,-3.34
9204.64,-4.40
9229.49,-5.26
9254.33,-4.92
9279.17,-3.16
9304.01,-0.81
9328.86,0.98
9353.70,1.51
9378.54,0.63
9403.38,-0.99
9428.23,-2.32
9453.07,-2.82
9477.91,-2.62
9502.75,-2.08
9527.60,-1.44
9552.44,-0.75
9577.28,-0.13
9602.12,0.03
9626.97,-0.57
9651.81,-1.49
9676.65,-2.06
9701.50,-2.03
9726.34,-1.65
9751.18,-1.70
9776.02,-2.81
9800.87,-4.28
9825.71,-4.91
9850.55,-4.65
9875.39,-4.40
9900.24,-4.15
9925.08,-3.82
9949.92,-3.65
9974.76,-3.40
9999.61,-3.18
10024.45,-3.14
10049.29,-2.92
10074.13,-2.55
10098.98,-2.58
10123.82,-2.85
10148.66,-2.38
10173.50,-0.91
10198.35,0.65
10223.19,1.18
10248.03,0.30
10272.87,-1.15
10297.72,-2.00
10322.56,-2.08
10347.40,-1.99
10372.25,-2.11
10397.09,-2.58
10421.93,-3.20
10446.77,-3.53
10471.62,-3.48
10496.46,-3.12
10521.30,-2.45
10546.14,-1.78
10570.99,-1.47
10595.83,-1.16
10620.67,-0.02
10645.51,1.23
10670.36,1.26
10695.20,0.26
10720.04,-0.29
10744.88,0.05
10769.73,0.57
10794.57,0.49
10819.41,-0.36
10844.25,-1.30
10869.10,-1.78
10893.94,-2.13
10918.78,-2.55
10943.62,-2.62
10968.47,-2.06
10993.31,-1.51
11018.15,-1.89
11043.00,-3.00
11067.84,-3.77
11092.68,-3.77
11117.52,-3.52
11142.37,-3.25
11167.21,-2.51
11192.05,-1.29
11216.89,-0.42
11241.74,-0.23
11266.58,-0.56
11291.42,-1.04
11316.26,-1.53
11341.11,-2.86
11365.95,-3.22
11390.79,-1.77
11415.63,0.26
11440.48,0.90
11465.32,0.20
11490.16,0.01
11515.00,1.00
11539.85,1.82
11564.69,1.44
11589.53,0.53
11614.37,-0.13
11639.22,-0.58
11664.06,-0.96
11688.90,-1.15
11713.74,-1.02
11738.59,-0.51
11763.43,0.21
11788.27,0.61
11813.12,0.28
11837.96,-0.52
11862.80,-1.06
11887.64,-1.22
11912.49,-1.19
11937.33,-0.79
11962.17,-0.29
11987.01,-0.42
12011.86,-0.66
12036.70,-0.90
12061.54,-1.12
12086.38,-1.26
12111.23,-1.61
12136.07,-2.17
12160.91,-2.99
12185.75,-3.68
12210.60,-3.66
12235.44,-3.02
12260.28,-2.49
12285.12,-2.51
12309.97,-2.62
12334.81,-2.42
12359.65,-2.11
12384.49,-1.78
12409.34,-1.74
12434.18,-2.60
12459.02,-3.88
12483.86,-4.29
12508.71,-3.76
12533.55,-3.25
12558.39,-3.07
12583.24,-3.22
12608.08,-3.75
12632.92,-4.11
12657.76,-3.69
12682.61,-2.93
12707.45,-2.64
12732.29,-2.35
12757.13,-1.73
12781.98,-1.01
12806.82,-0.73
12831.66,-1.01
12856.50,-1.39
12881.35,-1.55
12906.19,-1.55
12931.03,-1.61
12955.87,-1.91
12980.72,-2.37
13005.56,-2.66
13030.40,-2.57
13055.24,-2.23
13080.09,-2.22
13104.93,-3.03
13129.77,-4.20
13154.61,-4.67
13179.46,-4.24
13204.30,-3.50
13229.14,-2.74
13253.98,-1.91
13278.83,-1.28
13303.67,-1.17
13328.51,-1.56
13353.35,-1.98
13378.20,-2.16
13403.04,-2.35
13427.88,-2.47
13452.73,-2.60
13477.57,-2.38
13502.41,-1.55
13527.25,-0.90
13552.10,-1.18
13576.94,-2.28
13601.78,-3.50
13626.62,-4.20
13651.47,-4.08
13676.31,-3.39
13701.15,-2.80
13725.99,-2.54
13750.84,-2.30
13775.68,-2.21
13800.52,-2.76
13825.36,-3.60
13850.21,-3.65
13875.05,-2.90
13899.89,-2.78
13924.73,-3.83
13949.58,-4.83
13974.42,-4.82
13999.26,-4.08
14024.10,-3.07
14048.95,-1.79
14073.79,-0.46
14098.63,0.21
14123.47,-0.30
14148.32,-0.87
14173.16,-1.44
14198.00,-2.02
14222.85,-1.82
14247.69,-1.75
14272.53,-2.01
14297.37,-1.85
14322.22,-1.53
14347.06,-2.10
14371.90,-3.67
14396.74,-5.06
14421.59,-5.41
14446.43,-4.88
14471.27,-3.94
14496.11,-2.96
14520.96,-2.40
14545.80,-2.38
14570.64,-2.49
14595.48,-2.45
14620.33,-2.51
14645.17,-3.01
14670.01,-3.41
14694.85,-2.69
14719.70,-1.25
14744.54,-0.71
14769.38,-1.29
14794.22,-1.32
14819.07,-0.13
14843.91,0.29
14868.75,0.71
14893.59,0.21
14918.44,-0.69
14943.28,-1.27
14968.12,-2.02
14992.97,-3.11
15017.81,-3.90
15042.65,-3.97
15067.49,-3.77
15092.34,-3.63
15117.18,-3.21
15142.02,-2.36
15166.86,-1.56
15191.71,-1.11
15216.55,-0.94
15241.39,-1.28
15266.23,-2.18
15291.08,-2.93
15315.92,-3.12
15340.76,-3.23
15365.60,-3.57
15390.45,-3.64
15415.29,-3.12
15440.13,-2.34
15464.97,-1.49
15489.82,-0.89
15514.66,-1.16
15539.50,-1.96
15564.34,-2.01
15589.19,-2.07
15614.03,-0.79
15638.87,1.08
15663.71,1.47
15688.56,-0.70
15713.40,-3.47
15738.24,-4.20
15763.08,-3.32
15787.93,-2.77
15812.77,-2.68
15837.61,-2.16
15862.46,-1.54
15887.30,-1.60
15912.14,-2.22
15936.98,-2.55
15961.83,-2.45
15986.67,-2.75
16011.51,-3.71
16036.35,-4.55
16061.20,-4.66
16086.04,-4.23
16110.88,-4.03
16135.72,-4.53
16160.57,-5.12
16185.41,-4.95
16210.25,-4.08
16235.09,-3.25
16259.94,-3.02
16284.78,-3.07
16309.62,-3.13
16334.46,-2.96
16359.31,-2.65
16384.15,-2.70
16408.99,-3.09
16433.84,-3.97
16458.68,-5.22
16483.52,-5.84
16508.36,-5.61
16533.21,-5.11
16558.05,-4.25
16582.89,-3.21
16607.73,-2.98
16632.58,-3.62
16657.42,-3.95
16682.26,-3.34
16707.10,-2.55
16731.95,-2.42
16756.79,-2.88
16781.63,-3.38
16806.47,-3.58
16831.32,-3.38
16856.16,-2.87
16881.00,-2.32
16905.84,-2.18
16930.69,-2.51
16955.53,-2.61
16980.37,-2.29
17005.21,-1.97
17030.06,-1.05
17054.90,-0.52
17079.74,-0.57
17104.58,-0.82
17129.43,-0.70
17154.27,-0.28
17179.11,-0.21
17203.96,-0.53
17228.80,-0.53
17253.64,0.00
17278.48,0.00
17303.33,-0.34
17328.17,-1.25
17353.01,-1.85
17377.85,-1.61
17402.70,-0.87
17427.54,-0.34
17452.38,-0.32
17477.22,-0.61
17502.07,-1.20
17526.91,-2.03
17551.75,-2.54
17576.59,-2.34
17601.44,-2.01
17626.28,-2.14
17651.12,-2.32
17675.96,-1.77
17700.81,-1.21
17725.65,-0.65
17750.49,0.00
17775.33,-0.42
17800.18,-1.45
17825.02,-2.28
17849.86,-2.56
17874.71,-2.40
17899.55,-2.14
17924.39,-2.07
17949.23,-2.34
17974.07,-2.79
17998.92,-2.87
18023.76,-2.15
18048.60,-1.12
18073.45,-0.52
18098.29,-0.51
18123.13,-0.69
18147.97,-0.58
18172.82,-0.25
18197.66,-0.28
18222.50,-0.45
18247.34,-0.19
18272.19,0.00
18297.03,-0.04
18321.87,0.00
18346.71,0.00
18371.56,0.00
18396.40,0.00
18421.24,0.00
18446.08,0.00
18470.93,0.00
18495.77,0.00
18520.61,0.00
18545.46,0.00
