Size (bp),Intensity
0.58,2257.24
1.00,1948.32
2.00,1344.60
2.42,760.99
2.84,379.74
3.26,195.48
3.68,123.32
4.10,97.54
4.52,89.28
4.94,87.07
5.36,85.25
5.79,83.57
6.21,81.89
6.63,76.97
7.05,70.55
7.47,62.78
7.89,54.08
8.31,44.92
8.73,36.27
9.15,29.39
9.57,24.72
9.99,21.60
10.41,19.47
10.83,18.41
11.25,18.24
11.67,17.91
12.09,16.07
12.52,12.60
12.94,9.26
13.36,7.65
13.78,7.56
14.20,7.98
14.62,8.44
15.04,8.86
15.46,9.17
15.88,9.25
16.30,9.16
16.72,9.06
17.14,8.75
17.56,8.69
17.98,8.97
18.40,9.08
18.82,8.93
19.24,8.93
19.67,8.74
20.09,8.01
20.51,7.46
20.93,7.37
21.35,6.99
21.77,6.29
22.19,5.81
22.61,5.47
23.03,5.05
23.45,5.06
23.87,5.98
24.29,7.25
24.71,8.16
25.13,8.72
25.55,9.00
25.97,8.94
26.39,8.80
26.82,8.66
27.24,8.21
27.66,7.69
28.08,7.46
28.50,7.66
28.92,8.17
29.34,8.74
29.76,9.32
30.18,9.93
30.60,10.50
31.02,11.09
31.44,11.90
31.86,12.78
32.28,13.56
32.70,14.25
33.12,14.63
33.55,14.52
33.97,13.93
34.39,12.80
34.81,11.69
35.23,11.82
35.65,13.37
36.07,15.21
36.49,16.84
36.91,17.59
37.33,18.35
37.75,19.38
38.17,19.93
38.59,20.78
39.01,22.48
39.43,25.06
39.85,28.26
40.27,31.92
40.70,35.67
41.12,38.64
41.54,40.53
41.96,42.02
42.38,43.33
42.80,44.13
43.22,44.38
43.64,43.72
44.06,41.19
44.48,36.99
44.90,32.96
45.32,30.35
45.74,28.65
46.16,26.71
46.58,23.93
47.00,22.31
47.42,20.68
47.85,17.94
48.27,16.05
48.69,14.14
49.11,11.14
49.53,7.63
49.95,5.42
50.37,5.17
50.79,6.08
51.21,7.08
51.63,7.10
52.05,5.80
52.47,4.10
52.89,3.05
53.31,3.16
53.73,4.27
54.15,5.28
54.58,4.95
55.00,3.46
55.42,2.01
55.84,1.48
56.26,2.19
56.68,3.75
57.10,4.44
57.52,5.13
57.94,5.49
58.36,4.96
58.78,4.47
59.20,4.83
59.62,5.60
60.04,5.54
60.46,4.21
60.88,2.35
61.30,0.82
61.73,-0.27
62.15,-1.30
62.57,-1.99
62.99,-1.52
63.41,-0.18
63.83,0.95
64.25,1.78
64.67,2.75
65.09,3.28
65.51,2.86
65.93,2.53
66.35,3.36
66.77,4.61
67.19,5.04
67.61,4.85
68.03,4.66
68.45,4.32
68.88,4.44
69.30,4.76
69.72,4.71
70.14,4.34
70.56,3.90
70.98,3.10
71.40,1.93
71.82,0.95
72.24,0.50
72.66,0.73
73.08,1.28
73.50,1.36
73.92,1.08
74.34,0.97
74.76,1.05
75.18,1.47
75.61,2.50
76.03,3.69
76.45,4.16
76.87,3.69
77.29,2.88
77.71,2.54
78.13,2.20
78.55,1.85
78.97,2.34
79.39,3.54
79.81,4.11
80.23,3.42
80.65,2.93
81.07,3.61
81.49,4.36
81.91,4.48
82.33,4.59
82.76,4.91
83.18,5.25
83.60,5.88
84.02,6.50
84.44,5.99
84.86,4.22
85.28,2.88
85.70,3.04
86.12,3.59
86.54,3.26
86.96,2.48
87.38,2.23
87.80,2.86
88.22,3.54
88.64,4.23
89.06,5.65
89.48,5.89
89.91,4.58
90.33,3.02
90.75,2.56
91.17,3.08
91.59,3.78
92.01,4.57
92.43,5.25
92.85,4.96
93.27,3.47
93.69,1.80
94.11,0.82
94.53,0.81
94.95,1.65
95.37,2.59
95.79,2.62
96.21,1.62
96.64,0.56
97.06,0.53
97.48,1.37
97.90,1.55
98.32,0.88
98.74,0.22
99.16,-1.23
99.58,-1.22
100.00,-0.22
101.00,0.68
101.52,1.82
102.04,3.54
102.56,4.63
103.08,3.99
103.61,2.40
104.13,1.76
104.65,2.48
105.17,2.84
105.69,1.76
106.21,0.20
106.73,-0.53
107.25,0.03
107.77,1.56
108.29,3.05
108.82,3.47
109.34,2.88
109.86,1.91
110.38,0.72
110.90,-0.42
111.42,-0.58
111.94,-0.75
112.46,0.08
112.98,1.66
113.51,2.96
114.03,2.88
114.55,1.56
115.07,0.21
115.59,-0.29
116.11,0.09
116.63,1.23
117.15,3.03
117.67,4.76
118.19,5.50
118.72,5.12
119.24,4.28
119.76,3.67
120.28,3.31
120.80,2.44
121.32,0.88
121.84,-0.14
122.36,0.58
122.88,2.35
123.41,3.43
123.93,3.50
124.45,3.57
124.97,4.02
125.49,5.24
126.01,6.34
126.53,6.70
127.05,6.73
127.57,6.84
128.09,6.78
128.62,6.34
129.14,6.06
129.66,6.53
130.18,7.45
130.70,8.21
131.22,8.58
131.74,8.36
132.26,7.41
132.78,6.33
133.31,6.01
133.83,6.63
134.35,7.51
134.87,7.73
135.39,7.40
135.91,7.40
136.43,7.82
136.95,7.82
137.47,7.81
137.99,6.76
138.52,5.31
139.04,4.73
139.56,4.91
140.08,4.22
140.60,2.61
141.12,2.21
141.64,3.80
142.16,5.64
142.68,6.40
143.21,6.27
143.73,5.68
144.25,5.10
144.77,5.10
145.29,5.59
145.81,6.17
146.33,6.67
146.85,7.07
147.37,7.40
147.89,7.22
148.42,6.19
148.94,5.23
149.46,5.19
149.98,5.16
150.50,5.20
151.02,4.67
151.54,4.11
152.06,4.49
152.58,6.19
153.11,8.35
153.63,9.55
154.15,9.55
154.67,8.79
155.19,7.31
155.71,5.90
156.23,6.17
156.75,8.23
157.27,10.43
157.79,11.22
158.32,10.31
158.84,8.72
159.36,7.44
159.88,6.33
160.40,5.03
160.92,3.97
161.44,3.47
161.96,3.46
162.48,3.44
163.01,3.97
163.53,4.69
164.05,4.72
164.57,4.24
165.09,4.27
165.61,5.09
166.13,6.01
166.65,6.40
167.17,6.43
167.69,7.11
168.22,8.76
168.74,9.81
169.26,8.87
169.78,7.28
170.30,6.95
170.82,7.89
171.34,9.49
171.86,11.61
172.38,13.78
172.91,15.25
173.43,15.51
173.95,14.29
174.47,12.29
174.99,11.54
175.51,10.79
176.03,10.13
176.55,9.96
177.07,10.15
177.59,10.48
178.12,10.48
178.64,9.95
179.16,9.33
179.68,9.33
180.20,9.77
180.72,9.41
181.24,7.59
181.76,5.17
182.28,3.57
182.81,3.50
183.33,4.60
183.85,5.80
184.37,6.44
184.89,6.68
185.41,6.80
185.93,6.87
186.45,6.95
186.97,6.99
187.49,6.90
188.02,6.81
188.54,6.68
189.06,7.34
189.58,8.79
190.10,10.17
190.62,11.00
191.14,11.92
191.66,13.56
192.18,15.42
192.71,16.82
193.23,17.97
193.75,19.27
194.27,20.66
194.79,22.13
195.31,23.43
195.83,24.15
196.35,24.57
196.87,25.18
197.39,25.81
197.92,26.15
198.44,26.45
198.96,27.14
199.48,28.30
200.00,29.76
201.00,30.64
201.59,31.52
202.17,33.61
202.76,36.24
203.34,39.47
203.93,42.74
204.51,45.36
205.10,47.32
205.69,48.49
206.27,48.41
206.86,47.04
207.44,44.79
208.03,42.38
208.62,40.51
209.20,38.85
209.79,36.81
210.37,35.23
210.96,35.45
211.54,36.94
212.13,38.08
212.72,38.69
213.30,39.61
213.89,40.74
214.47,41.53
215.06,41.89
215.64,42.24
216.23,42.88
216.82,42.61
217.40,40.72
217.99,37.33
218.57,33.51
219.16,30.98
219.75,30.70
220.33,31.45
220.92,31.04
221.50,29.04
222.09,27.23
222.67,27.26
223.26,28.90
223.85,30.59
224.43,31.09
225.02,30.91
225.60,31.81
226.19,34.86
226.78,39.57
227.36,44.43
227.95,47.68
228.53,48.46
229.12,47.26
229.70,46.23
230.29,45.20
230.88,43.37
231.46,42.45
232.05,42.48
232.63,43.00
233.22,43.65
233.80,44.64
234.39,45.97
234.98,47.40
235.56,49.44
236.15,52.81
236.73,57.49
237.32,62.85
237.91,67.96
238.49,71.86
239.08,74.68
239.66,77.41
240.25,80.26
240.83,82.43
241.42,83.98
242.01,85.60
242.59,87.59
243.18,90.81
243.76,93.72
244.35,96.64
244.93,105.36
245.52,115.98
246.11,126.54
246.69,134.97
247.28,140.75
247.86,144.89
248.45,148.44
249.04,151.85
249.62,155.02
250.21,157.69
250.79,160.05
251.38,162.40
251.96,164.08
252.55,164.32
253.14,163.91
253.72,164.95
254.31,169.42
254.89,178.81
255.48,193.78
256.07,213.20
256.65,233.58
257.24,251.08
257.82,264.11
258.41,268.22
258.99,272.33
259.58,275.33
260.17,274.16
260.75,272.44
261.34,274.57
261.92,282.50
262.51,295.79
263.09,315.04
263.68,342.88
264.27,380.80
264.85,426.48
265.44,473.99
266.02,516.93
266.61,552.49
267.20,583.51
267.78,615.62
268.37,651.65
268.95,689.53
269.54,725.00
270.12,755.44
270.71,784.02
271.30,822.58
271.88,887.52
272.47,938.71
273.05,989.91
273.64,1129.86
274.22,1297.88
274.81,1478.44
275.40,1656.43
275.98,1825.46
276.57,1990.82
277.15,2164.88
277.74,2361.42
278.33,2595.95
278.91,2891.89
279.50,3283.48
280.08,3807.61
280.67,4490.28
281.25,5361.16
281.84,6540.89
282.43,8368.78
283.01,11349.80
283.60,15682.80
284.18,20627.29
284.77,24458.05
285.36,25360.14
285.94,22676.93
286.53,20071.25
287.11,17465.57
287.70,11775.29
288.28,7252.10
288.87,4370.96
289.46,2752.73
290.04,1847.54
290.63,1293.90
291.21,929.61
291.80,691.92
292.38,544.69
292.97,456.69
293.56,403.59
294.14,368.81
294.73,342.19
295.31,318.77
295.90,295.69
296.49,270.36
297.07,242.24
297.66,213.02
298.24,184.23
298.83,157.24
299.41,134.46
300.00,117.74
301.00,106.48
301.70,102.11
302.39,97.75
303.09,88.67
303.79,78.56
304.49,68.06
305.18,58.00
305.88,49.94
306.58,45.06
307.27,42.61
307.97,41.44
308.67,41.53
309.37,42.72
310.06,43.63
310.76,42.85
311.46,40.72
312.15,38.87
312.85,37.74
313.55,36.21
314.25,33.40
314.94,29.82
315.64,26.79
316.34,25.00
317.04,23.70
317.73,22.01
318.43,21.11
319.13,20.20
319.82,18.64
320.52,16.97
321.22,14.74
321.92,11.80
322.61,8.96
323.31,7.64
324.01,7.82
324.70,7.88
325.40,7.04
326.10,5.77
326.80,4.54
327.49,3.29
328.19,1.93
328.89,0.76
329.58,0.37
330.28,1.03
330.98,2.06
331.68,2.15
332.37,0.95
333.07,-0.17
333.77,-0.16
334.46,0.16
335.16,0.02
335.86,0.05
336.56,0.08
337.25,0.52
337.95,0.41
338.65,-0.68
339.35,-2.01
340.04,-2.34
340.74,-1.10
341.44,1.15
342.13,3.15
342.83,3.74
343.53,3.15
344.23,2.79
344.92,3.37
345.62,4.08
346.32,3.69
347.01,2.20
347.71,0.92
348.41,0.41
349.11,0.06
349.80,-0.01
350.50,0.66
351.20,1.57
351.89,2.15
352.59,2.36
353.29,2.57
353.99,3.01
354.68,3.55
355.38,4.48
356.08,5.90
356.77,7.49
357.47,8.68
358.17,9.04
358.87,8.23
359.56,6.12
360.26,3.34
360.96,0.97
361.65,-0.37
362.35,-1.01
363.05,-1.67
363.75,-2.09
364.44,-1.26
365.14,0.43
365.84,1.11
366.54,0.40
367.23,-0.09
367.93,0.29
368.63,0.13
369.32,-1.19
370.02,-1.69
370.72,-2.19
371.42,-1.36
372.11,0.72
372.81,2.26
373.51,2.42
374.20,1.58
374.90,0.25
375.60,-1.34
376.30,-2.58
376.99,-2.47
377.69,-1.22
378.39,-0.26
379.08,-0.21
379.78,-0.32
380.48,-0.07
381.18,0.01
381.87,-0.66
382.57,-1.83
383.27,-2.87
383.96,-3.33
384.66,-3.16
385.36,-2.68
386.06,-2.36
386.75,-2.24
387.45,-2.13
388.15,-1.45
388.85,-0.67
389.54,-0.78
390.24,-1.81
390.94,-2.78
391.63,-3.00
392.33,-2.56
393.03,-2.07
393.73,-2.07
394.42,-2.49
395.12,-2.71
395.82,-1.91
396.51,-0.15
397.21,1.23
397.91,1.21
398.61,0.29
399.30,-0.85
400.00,-2.27
401.00,-3.77
401.72,-4.31
402.45,-3.56
403.17,-2.72
403.89,-2.82
404.61,-2.92
405.34,-3.76
406.06,-3.90
406.78,-2.85
407.50,-1.87
408.23,-2.43
408.95,-4.24
409.67,-5.54
410.39,-5.12
411.12,-3.52
411.84,-2.21
412.56,-1.69
413.28,-1.25
414.01,-0.58
414.73,-0.06
415.45,0.58
416.18,1.78
416.90,2.72
417.62,2.49
418.34,1.81
419.07,1.91
419.79,2.50
420.51,2.50
421.23,1.72
421.96,1.37
422.68,1.02
423.40,1.30
424.12,2.24
424.85,2.35
425.57,1.59
426.29,1.73
427.01,3.14
427.74,4.39
428.46,4.78
429.18,4.45
429.91,3.48
430.63,2.08
431.35,0.56
432.07,-0.81
432.80,-1.83
433.52,-2.28
434.24,-2.26
434.96,-2.28
435.69,-2.28
436.41,-1.38
437.13,0.43
437.85,1.82
438.58,1.88
439.30,1.45
440.02,1.01
440.74,0.14
441.47,0.37
442.19,2.03
442.91,3.72
443.64,4.17
444.36,3.66
445.08,2.78
445.80,1.95
446.53,1.24
447.25,0.06
447.97,-1.39
448.69,-1.78
449.42,-0.75
450.14,0.29
450.86,0.24
451.58,-0.38
452.31,-0.87
453.03,-1.02
453.75,-0.49
454.47,0.89
455.20,2.23
455.92,2.40
456.64,1.47
457.36,1.19
458.09,0.92
458.81,2.03
459.53,4.05
460.26,5.13
460.98,4.89
461.70,4.56
462.42,4.58
463.15,4.04
463.87,2.55
464.59,0.96
465.31,0.12
466.04,-0.23
466.76,-0.90
467.48,-1.54
468.20,-1.24
468.93,-0.49
469.65,-0.04
470.37,0.53
471.09,1.48
471.82,2.17
472.54,1.86
473.26,0.59
473.99,-0.39
474.71,-0.12
475.43,0.14
476.15,1.61
476.88,2.60
477.60,2.75
478.32,2.60
479.04,2.74
479.77,3.26
480.49,3.48
481.21,3.38
481.93,3.95
482.66,5.10
483.38,5.46
484.10,4.56
484.82,3.81
485.55,4.53
486.27,5.92
486.99,6.30
487.72,5.31
488.44,3.66
489.16,1.61
489.88,-0.67
490.61,-2.18
491.33,-2.07
492.05,-0.93
492.77,-0.32
493.50,0.29
494.22,1.30
494.94,1.90
495.66,1.81
496.39,1.07
497.11,0.35
497.83,0.78
498.55,2.36
499.28,3.58
500.00,3.62
501.00,3.15
502.01,2.62
503.02,1.91
504.03,0.99
505.04,-0.04
506.05,-0.68
507.06,-0.39
508.07,0.18
509.08,-0.03
510.09,-0.70
511.10,-1.01
512.11,-0.76
513.12,-0.04
514.13,0.40
515.14,0.84
516.15,1.14
517.16,0.37
518.17,-0.86
519.18,-1.44
520.19,-1.13
521.20,-0.59
522.21,-0.45
523.22,-0.89
524.23,-1.41
525.24,-1.44
526.26,-1.40
527.27,-1.78
528.28,-2.31
529.29,-2.78
530.30,-3.01
531.31,-2.87
532.32,-2.65
533.33,-2.51
534.34,-2.10
535.35,-1.40
536.36,-0.93
537.37,-1.03
538.38,-1.57
539.39,-1.83
540.40,-2.10
541.41,-2.09
542.42,-1.39
543.43,-0.62
544.44,-0.40
545.45,-0.37
546.46,-0.29
547.47,-1.01
548.48,-2.73
549.49,-3.90
550.50,-3.27
551.51,-1.46
552.52,0.09
553.53,0.46
554.54,-0.19
555.55,-1.11
556.56,-1.61
557.57,-1.33
558.58,-0.63
559.59,-0.44
560.60,-0.81
561.61,-0.67
562.62,0.45
563.63,1.16
564.64,1.86
565.65,2.69
566.66,2.50
567.67,1.47
568.68,0.38
569.69,-0.17
570.70,-0.20
571.71,0.21
572.72,0.95
573.73,1.24
574.74,0.49
575.76,-0.58
576.77,-0.80
577.78,0.26
578.79,2.20
579.80,3.97
580.81,4.72
581.82,4.95
582.83,5.94
583.84,8.10
584.85,10.67
585.86,12.52
586.87,12.60
587.88,11.55
588.89,10.51
589.90,7.08
590.91,4.01
591.92,2.13
592.93,1.01
593.94,0.27
594.95,0.17
595.96,0.64
596.97,1.11
597.98,1.01
598.99,0.53
600.00,0.20
601.00,-0.09
602.18,-0.64
603.36,-1.16
604.54,-1.31
605.71,-0.89
606.89,0.27
608.07,1.82
609.25,2.86
610.43,2.69
611.61,1.65
612.79,1.01
613.96,1.59
615.14,2.15
616.32,2.71
617.50,3.12
618.68,2.60
619.86,1.96
621.04,1.72
622.21,1.73
623.39,1.69
624.57,1.52
625.75,1.52
626.93,1.86
628.11,2.28
629.29,2.46
630.46,2.57
631.64,3.02
632.82,3.55
634.00,3.57
635.18,3.12
636.36,2.63
637.54,2.20
638.71,1.51
639.89,0.57
641.07,-0.00
642.25,0.25
643.43,0.65
644.61,1.04
645.79,1.61
646.96,1.23
648.14,0.08
649.32,-0.78
650.50,-0.69
651.68,-0.28
652.86,-0.29
654.04,-0.32
655.21,0.15
656.39,0.66
657.57,0.87
658.75,1.19
659.93,1.79
661.11,1.99
662.29,1.60
663.46,1.64
664.64,2.64
665.82,3.57
667.00,3.81
668.18,3.69
669.36,2.97
670.54,1.75
671.71,1.16
672.89,1.28
674.07,1.41
675.25,1.91
676.43,2.39
677.61,2.46
678.79,2.35
679.96,3.18
681.14,4.82
682.32,5.93
683.50,5.74
684.68,4.45
685.86,2.74
687.04,1.65
688.21,2.18
689.39,4.22
690.57,6.08
691.75,6.47
692.93,5.70
694.11,4.64
695.29,3.97
696.46,4.10
697.64,4.53
698.82,4.41
700.00,4.05
701.00,4.22
702.98,4.40
704.96,5.11
706.94,5.30
708.92,4.90
710.90,4.35
712.88,4.09
714.86,3.90
716.84,3.10
718.82,2.15
720.80,2.07
722.78,2.40
724.76,2.37
726.74,2.56
728.72,3.53
730.70,4.84
732.68,5.60
734.66,5.08
736.64,3.82
738.62,3.18
740.60,3.54
742.58,4.18
744.56,4.37
746.54,3.62
748.52,2.04
750.50,1.30
752.48,0.56
754.46,0.21
756.44,0.98
758.42,1.62
760.40,1.62
762.38,1.84
764.36,2.64
766.34,3.23
768.32,3.03
770.30,2.58
772.28,2.70
774.26,3.02
776.24,2.57
778.22,1.39
780.20,0.32
782.18,-0.09
784.16,0.12
786.14,0.59
788.12,1.13
790.10,1.43
792.08,1.12
794.06,0.48
796.04,0.17
798.02,0.34
800.00,0.51
801.00,1.26
803.36,1.69
805.71,1.34
808.07,0.61
810.43,-0.12
812.79,-1.01
815.14,-2.26
817.50,-3.42
819.86,-3.37
822.21,-1.68
824.57,0.46
826.93,1.43
829.29,0.85
831.64,-0.37
834.00,-1.38
836.36,-1.93
838.71,-1.50
841.07,0.26
843.43,2.33
845.79,3.06
848.14,2.28
850.50,1.20
852.86,0.72
855.21,0.70
857.57,0.69
859.93,0.92
862.29,1.57
864.64,2.13
867.00,1.54
869.36,-0.23
871.71,-1.71
874.07,-2.15
876.43,-2.49
878.79,-3.40
881.14,-3.99
883.50,-3.41
885.86,-2.04
888.21,-0.52
890.57,0.75
892.93,0.94
895.29,-0.25
897.64,-1.28
900.00,-0.81
901.00,0.31
904.67,0.77
908.33,0.49
912.00,0.04
915.67,-0.11
919.33,-0.25
923.00,-0.48
926.67,-0.92
930.33,-1.45
934.00,-1.95
937.67,-2.35
941.33,-2.46
945.00,-2.24
948.67,-1.68
952.33,-0.83
956.00,-0.36
959.67,-0.69
963.33,-1.27
967.00,-1.45
970.67,-1.03
974.33,-0.15
978.00,0.44
981.67,0.10
985.33,-0.82
989.00,-1.29
992.67,-0.76
996.33,0.12
1000.00,0.43
1001.00,0.41
1006.10,0.38
1011.21,0.32
1016.31,-0.41
1021.41,-2.02
1026.51,-3.30
1031.62,-3.32
1036.72,-2.42
1041.82,-1.17
1046.92,0.19
1052.03,1.20
1057.13,1.72
1062.23,2.00
1067.33,1.61
1072.44,0.07
1077.54,-1.50
1082.64,-1.51
1087.74,-0.15
1092.85,1.18
1097.95,1.87
1103.05,2.51
1108.15,3.13
1113.26,2.96
1118.36,2.17
1123.46,1.51
1128.56,1.23
1133.67,0.95
1138.77,0.25
1143.87,-0.24
1148.97,-0.24
1154.08,-0.22
1159.18,-0.80
1164.28,-1.95
1169.38,-3.03
1174.49,-3.14
1179.59,-2.03
1184.69,-0.56
1189.79,0.08
1194.90,-0.62
1200.00,-2.02
1201.00,-2.98
1210.06,-3.05
1219.12,-2.44
1228.18,-1.43
1237.24,-0.64
1246.30,-0.44
1255.36,-0.08
1264.42,0.94
1273.48,1.62
1282.55,1.40
1291.61,1.17
1300.67,0.58
1309.73,0.97
1318.79,1.99
1327.85,2.89
1336.91,3.46
1345.97,3.46
1355.03,2.66
1364.09,1.40
1373.15,0.40
1382.21,0.02
1391.27,0.29
1400.33,1.07
1409.39,1.75
1418.45,1.76
1427.52,1.36
1436.58,0.98
1445.64,1.06
1454.70,1.73
1463.76,2.34
1472.82,2.47
1481.88,2.47
1490.94,2.33
1500.00,1.77
1501.00,1.46
1510.24,1.15
1519.48,1.01
1528.72,1.37
1537.96,1.77
1547.20,1.80
1556.44,1.54
1565.69,1.53
1574.93,2.12
1584.17,2.84
1593.41,2.84
1602.65,1.90
1611.89,0.53
1621.13,-0.31
1630.37,0.12
1639.61,1.36
1648.85,2.33
1658.09,2.83
1667.33,3.14
1676.57,3.22
1685.81,3.13
1695.06,3.15
1704.30,3.32
1713.54,3.48
1722.78,3.40
1732.02,3.32
1741.26,2.84
1750.50,2.56
1759.74,2.70
1768.98,2.85
1778.22,2.78
1787.46,2.43
1796.70,1.69
1805.94,0.59
1815.19,-0.27
1824.43,-0.02
1833.67,1.53
1842.91,3.14
1852.15,3.75
1861.39,4.04
1870.63,4.79
1879.87,5.71
1889.11,6.54
1898.35,7.13
1907.59,6.95
1916.83,5.90
1926.07,4.76
1935.31,4.12
1944.56,3.87
1953.80,3.76
1963.04,3.65
1972.28,3.56
1981.52,4.20
1990.76,5.64
2000.00,7.02
2001.00,7.64
2018.22,7.50
2035.45,6.91
2052.67,6.46
2069.90,6.57
2087.12,6.71
2104.34,6.21
2121.57,5.54
2138.79,5.43
2156.02,5.68
2173.24,5.92
2190.47,6.34
2207.69,6.81
2224.91,6.48
2242.14,5.28
2259.36,4.31
2276.59,4.26
2293.81,4.64
2311.03,4.72
2328.26,4.80
2345.48,4.92
2362.71,5.53
2379.93,6.55
2397.16,7.50
2414.38,8.00
2431.60,7.90
2448.83,7.62
2466.05,7.57
2483.28,7.13
2500.50,5.73
2517.72,4.27
2534.95,4.38
2552.17,6.35
2569.40,8.25
2586.62,7.65
2603.84,4.83
2621.07,2.58
2638.29,2.51
2655.52,3.50
2672.74,4.17
2689.97,4.44
2707.19,4.58
2724.41,5.03
2741.64,5.57
2758.86,6.11
2776.09,7.19
2793.31,7.76
2810.53,8.26
2827.76,8.51
2844.98,7.45
2862.21,5.46
2879.43,4.67
2896.66,5.96
2913.88,7.64
2931.10,7.70
2948.33,6.17
2965.55,4.59
2982.78,4.30
3000.00,4.88
3001.00,5.03
3025.99,5.03
3050.98,6.07
3075.98,7.75
3100.97,8.75
3125.96,8.77
3150.95,8.35
3175.94,7.94
3200.93,7.93
3225.93,7.91
3250.92,8.01
3275.91,7.37
3300.90,6.10
3325.89,5.35
3350.88,5.84
3375.87,7.40
3400.87,8.92
3425.86,8.84
3450.85,7.16
3475.84,5.50
3500.83,4.77
3525.82,4.75
3550.82,5.19
3575.81,5.22
3600.80,4.54
3625.79,4.72
3650.78,6.41
3675.77,7.74
3700.77,7.55
3725.76,6.60
3750.75,5.49
3775.74,4.37
3800.73,4.14
3825.73,3.90
3850.72,4.73
3875.71,6.34
3900.70,7.39
3925.69,7.11
3950.68,6.17
3975.68,5.75
4000.67,5.77
4025.66,5.25
4050.65,4.25
4075.64,3.69
4100.63,3.82
4125.62,4.41
4150.62,5.38
4175.61,5.93
4200.60,5.23
4225.59,4.29
4250.58,4.68
4275.58,6.06
4300.57,6.85
4325.56,6.36
4350.55,5.22
4375.54,4.45
4400.53,4.50
4425.52,4.87
4450.52,5.23
4475.51,6.02
4500.50,6.08
4525.49,5.46
4550.48,4.77
4575.48,4.60
4600.47,5.29
4625.46,6.30
4650.45,6.66
4675.44,6.44
4700.43,6.27
4725.42,6.02
4750.42,5.73
4775.41,6.35
4800.40,7.93
4825.39,8.50
4850.38,6.84
4875.37,4.61
4900.37,3.75
4925.36,4.06
4950.35,4.70
4975.34,5.45
5000.33,5.58
5025.33,5.03
5050.32,4.49
5075.31,3.22
5100.30,2.68
5125.29,2.19
5150.28,1.74
5175.27,2.90
5200.27,6.38
5225.26,10.38
5250.25,12.63
5275.24,13.26
5300.23,14.04
5325.23,15.84
5350.22,18.06
5375.21,19.44
5400.20,19.22
5425.19,18.09
5450.18,16.91
5475.17,15.45
5500.17,13.49
5525.16,11.32
5550.15,9.54
5575.14,9.15
5600.13,11.12
5625.12,15.46
5650.12,18.92
5675.11,22.38
5700.10,35.98
5725.09,66.27
5750.08,127.49
5775.08,236.20
5800.07,408.76
5825.06,653.86
5850.05,963.72
5875.04,1310.86
5900.03,1652.16
5925.02,1938.44
5950.02,2124.20
5975.01,2177.28
6000.00,2090.42
6024.79,1884.43
6049.64,1597.79
6074.48,1275.19
6099.32,959.79
6124.16,684.54
6149.01,465.79
6173.85,304.54
6198.69,193.24
6223.53,121.85
6248.38,100.98
6273.22,80.10
6298.06,57.84
6322.90,46.22
6347.75,39.48
6372.59,35.09
6397.43,31.91
6422.27,28.97
6447.12,26.27
6471.96,24.46
6496.80,23.05
6521.65,21.30
6546.49,19.66
6571.33,18.27
6596.17,16.79
6621.02,15.82
6645.86,15.73
6670.70,15.59
6695.54,14.71
6720.39,13.32
6745.23,11.53
6770.07,9.23
6794.91,7.12
6819.76,6.22
6844.60,6.34
6869.44,6.41
6894.28,6.47
6919.13,6.20
6943.97,5.61
6968.81,4.27
6993.65,2.22
7018.50,0.85
7043.34,1.05
7068.18,1.99
7093.02,2.41
7117.87,1.90
7142.71,0.90
7167.55,0.13
7192.39,-0.46
7217.24,-1.40
7242.08,-2.10
7266.92,-1.50
7291.77,-0.11
7316.61,0.72
7341.45,0.73
7366.29,0.31
7391.14,-0.19
7415.98,0.14
7440.82,1.56
7465.66,2.22
7490.51,2.88
7515.35,3.50
7540.19,3.91
7565.03,3.79
7589.88,2.55
7614.72,0.76
7639.56,-0.51
7664.40,-0.68
7689.25,-0.18
7714.09,0.03
7738.93,-0.43
7763.77,-1.14
7788.62,-1.91
7813.46,-2.64
7838.30,-2.92
7863.14,-2.52
7887.99,-1.75
7912.83,-1.06
7937.67,-0.58
7962.51,-0.03
7987.36,0.71
8012.20,1.21
8037.04,1.16
8061.89,0.80
8086.73,0.65
8111.57,0.49
8136.41,0.62
8161.26,1.42
8186.10,2.20
8210.94,1.95
8235.78,0.70
8260.63,-0.85
8285.47,-1.89
8310.31,-1.63
8335.15,-0.53
8360.00,-0.41
8384.84,-1.61
8409.68,-2.50
8434.52,-2.39
8459.37,-2.06
8484.21,-1.64
8509.05,-1.21
8533.89,-1.56
8558.74,-2.21
8583.58,-2.06
8608.42,-1.38
8633.26,-1.10
8658.11,-1.29
8682.95,-1.36
8707.79,-1.44
8732.63,-1.36
8757.48,-1.16
8782.32,-0.61
8807.16,0.05
8832.00,-0.44
8856.85,-2.22
8881.69,-3.50
8906.53,-3.00
8931.37,-1.28
8956.22,0.39
8981.06,1.07
9005.90,0.66
9030.75,0.05
9055.59,-0.18
9080.43,-0.51
9105.27,-1.07
9130.12,-0.98
9154.96,0.12
9179.80,1.31
9204.64,1.70
9229.49,1.12
9254.33,0.08
9279.17,-0.20
9304.01,-0.47
9328.86,-0.42
9353.70,-0.91
9378.54,-2.20
9403.38,-3.19
9428.23,-3.08
9453.07,-2.03
9477.91,-0.53
9502.75,0.51
9527.60,0.07
9552.44,-1.20
9577.28,-1.24
9602.12,0.54
9626.97,2.68
9651.81,3.90
9676.65,4.04
9701.50,3.26
9726.34,1.95
9751.18,1.06
9776.02,1.25
9800.87,1.86
9825.71,1.81
9850.55,1.11
9875.39,0.50
9900.24,0.44
9925.08,0.38
9949.92,0.49
9974.76,0.40
9999.61,0.27
10024.45,0.57
10049.29,0.74
10074.13,-0.01
10098.98,-1.09
10123.82,-1.47
10148.66,-1.15
10173.50,-0.63
10198.35,-0.38
10223.19,-0.28
10248.03,-0.08
10272.87,-0.30
10297.72,-1.16
10322.56,-1.64
10347.40,-1.39
10372.25,-1.62
10397.09,-2.86
10421.93,-3.53
10446.77,-2.28
10471.62,-0.21
10496.46,0.21
10521.30,0.63
10546.14,0.24
10570.99,0.01
10595.83,-0.07
10620.67,-0.65
10645.51,-1.08
10670.36,-1.16
10695.20,-1.86
10720.04,-2.94
10744.88,-3.03
10769.73,-2.25
10794.57,-1.83
10819.41,-1.72
10844.25,-0.87
10869.10,0.41
10893.94,0.72
10918.78,0.00
10943.62,-0.46
10968.47,-0.20
10993.31,0.18
11018.15,0.07
11043.00,-0.54
11067.84,-0.98
11092.68,-0.49
11117.52,0.19
11142.37,0.87
11167.21,2.37
11192.05,2.95
11216.89,1.92
11241.74,0.17
11266.58,-0.70
11291.42,-0.47
11316.26,0.19
11341.11,0.89
11365.95,1.27
11390.79,0.97
11415.63,0.39
11440.48,0.15
11465.32,0.08
11490.16,0.01
11515.00,0.29
11539.85,0.71
11564.69,0.37
11589.53,-0.62
11614.37,-1.07
11639.22,-0.69
11664.06,-0.24
11688.90,0.19
11713.74,0.50
11738.59,0.81
11763.43,0.75
11788.27,-0.73
11813.12,-2.26
11837.96,-2.01
11862.80,-0.53
11887.64,0.13
11912.49,-0.70
11937.33,-1.78
11962.17,-1.84
11987.01,-1.04
12011.86,-0.52
12036.70,-0.74
12061.54,-1.04
12086.38,-1.11
12111.23,-1.55
12136.07,-2.46
12160.91,-3.05
12185.75,-2.71
12210.60,-1.45
12235.44,0.03
12260.28,0.67
12285.12,0.05
12309.97,-1.15
12334.81,-1.57
12359.65,-1.98
12384.49,-1.81
12409.34,-0.82
12434.18,-0.12
12459.02,-0.38
12483.86,-1.27
12508.71,-2.23
12533.55,-2.80
12558.39,-2.83
12583.24,-2.63
12608.08,-2.58
12632.92,-2.91
12657.76,-3.50
12682.61,-3.71
12707.45,-3.35
12732.29,-3.14
12757.13,-3.19
12781.98,-3.11
12806.82,-3.22
12831.66,-3.50
12856.50,-3.36
12881.35,-3.20
12906.19,-3.96
12931.03,-4.56
12955.87,-5.17
12980.72,-5.29
13005.56,-3.99
13030.40,-2.55
13055.24,-2.13
13080.09,-2.52
13104.93,-2.68
13129.77,-2.14
13154.61,-1.63
13179.46,-1.55
13204.30,-1.27
13229.14,-0.48
13253.98,0.20
13278.83,0.25
13303.67,-0.29
13328.51,-0.98
13353.35,-1.62
13378.20,-2.18
13403.04,-2.17
13427.88,-1.48
13452.73,-1.09
13477.57,-1.60
13502.41,-2.49
13527.25,-3.15
13552.10,-3.29
13576.94,-3.44
13601.78,-3.52
13626.62,-3.60
13651.47,-3.46
13676.31,-2.72
13701.15,-1.84
13725.99,-1.53
13750.84,-1.73
13775.68,-2.19
13800.52,-2.70
13825.36,-2.62
13850.21,-1.56
13875.05,-0.39
13899.89,-0.10
13924.73,-0.59
13949.58,-1.27
13974.42,-1.98
13999.26,-2.52
14024.10,-2.32
14048.95,-1.04
14073.79,0.42
14098.63,0.64
14123.47,-0.53
14148.32,-1.34
14173.16,-2.14
14198.00,-3.56
14222.85,-4.33
14247.69,-3.80
14272.53,-2.40
14297.37,-1.76
14322.22,-2.53
14347.06,-3.39
14371.90,-3.32
14396.74,-3.37
14421.59,-4.35
14446.43,-5.12
14471.27,-4.41
14496.11,-2.51
14520.96,-0.57
14545.80,0.35
14570.64,0.06
14595.48,-0.52
14620.33,-0.13
14645.17,1.05
14670.01,1.36
14694.85,0.23
14719.70,-0.91
14744.54,-0.91
14769.38,-0.92
14794.22,-0.45
14819.07,-0.50
14843.91,-0.96
14868.75,-1.31
14893.59,-1.60
14918.44,-2.57
14943.28,-4.30
14968.12,-5.30
14992.97,-4.44
15017.81,-2.79
15042.65,-1.57
15067.49,-0.55
15092.34,0.68
15117.18,1.78
15142.02,2.00
15166.86,1.00
15191.71,-0.53
15216.55,-1.34
15241.39,-1.33
15266.23,-1.86
15291.08,-3.45
15315.92,-4.64
15340.76,-4.15
15365.60,-3.37
15390.45,-2.59
15415.29,-1.51
15440.13,-1.66
15464.97,-2.23
15489.82,-2.13
15514.66,-1.44
15539.50,-0.77
15564.34,-0.49
15589.19,-0.36
15614.03,0.31
15638.87,1.19
15663.71,0.80
15688.56,-0.94
15713.40,-2.19
15738.24,-2.06
15763.08,-1.95
15787.93,-2.95
15812.77,-3.89
15837.61,-3.34
15862.46,-1.73
15887.30,-0.63
15912.14,-1.21
15936.98,-2.69
15961.83,-2.76
15986.67,-2.83
16011.51,-1.18
16036.35,0.21
16061.20,0.17
16086.04,-0.36
16110.88,-0.35
16135.72,0.14
16160.57,0.16
16185.41,-1.17
16210.25,-3.33
16235.09,-4.59
16259.94,-4.25
16284.78,-3.42
16309.62,-3.10
16334.46,-2.99
16359.31,-2.65
16384.15,-2.51
16408.99,-3.18
16433.84,-4.16
16458.68,-4.26
16483.52,-3.27
16508.36,-2.40
16533.21,-2.80
16558.05,-3.80
16582.89,-3.52
16607.73,-3.24
16632.58,-0.92
16657.42,0.62
16682.26,0.13
16707.10,-0.95
16731.95,-1.42
16756.79,-2.00
16781.63,-3.42
16806.47,-4.85
16831.32,-5.14
16856.16,-4.52
16881.00,-3.93
16905.84,-3.26
16930.69,-2.16
16955.53,-1.29
16980.37,-1.30
17005.21,-1.54
17030.06,-0.97
17054.90,-0.17
17079.74,-0.38
17104.58,-1.53
17129.43,-2.84
17154.27,-3.66
17179.11,-3.55
17203.96,-3.45
17228.80,-2.48
17253.64,-1.72
17278.48,-1.70
17303.33,-2.18
17328.17,-2.43
17353.01,-2.10
17377.85,-1.96
17402.70,-2.46
17427.54,-2.63
17452.38,-1.85
17477.22,-0.83
17502.07,-0.13
17526.91,0.39
17551.75,0.56
17576.59,0.25
17601.44,-0.06
17626.28,0.00
17651.12,-1.87
17675.96,-1.65
17700.81,-1.67
17725.65,-2.12
17750.49,-2.98
17775.33,-3.70
17800.18,-3.60
17825.02,-3.50
17849.86,-2.22
17874.71,-0.70
17899.55,0.00
17924.39,-0.34
17949.23,-1.49
17974.07,-3.15
17998.92,-4.63
18023.76,-5.19
18048.60,-4.96
18073.45,-4.54
18098.29,-3.88
18123.13,-2.77
18147.97,-1.80
18172.82,-1.87
18197.66,-2.79
18222.50,-3.52
18247.34,-3.81
18272.19,-3.98
18297.03,-3.84
18321.87,-3.54
18346.71,-3.82
18371.56,-4.45
18396.40,-4.42
18421.24,-4.39
18446.08,-3.20
18470.93,-1.41
18495.77,-0.05
18520.61,0.00
18545.46,-1.05
