Size (bp),Intensity
0.58,1229.70
1.00,1046.07
2.00,706.50
2.42,390.57
2.84,193.01
3.26,102.45
3.68,68.59
4.10,55.87
4.52,53.22
4.94,50.56
5.36,48.73
5.79,48.59
6.21,48.33
6.63,46.03
7.05,41.04
7.47,34.43
7.89,27.73
8.31,21.77
8.73,16.92
9.15,13.50
9.57,11.84
9.99,11.67
10.41,11.94
10.83,11.84
11.25,11.74
11.67,10.97
12.09,9.91
12.52,8.82
12.94,8.21
13.36,8.34
13.78,8.48
14.20,8.04
14.62,7.48
15.04,7.22
15.46,7.41
15.88,8.63
16.30,10.64
16.72,11.72
17.14,11.32
17.56,10.91
17.98,9.27
18.40,8.18
18.82,7.93
19.24,7.96
19.67,7.61
20.09,6.75
20.51,5.89
20.93,5.34
21.35,4.88
21.77,4.36
22.19,4.00
22.61,4.04
23.03,4.44
23.45,4.47
23.87,4.49
24.29,3.54
24.71,2.48
25.13,2.48
25.55,2.87
25.97,2.27
26.39,0.95
26.82,0.42
27.24,0.94
27.66,1.21
28.08,0.48
28.50,-0.32
28.92,-0.04
29.34,0.98
29.76,1.25
30.18,1.51
30.60,1.23
31.02,0.83
31.44,0.53
31.86,-0.11
32.28,-0.95
32.70,-1.28
33.12,-0.95
33.55,-0.40
33.97,-0.01
34.39,0.18
34.81,0.51
35.23,1.40
35.65,2.89
36.07,3.59
36.49,4.30
36.91,4.58
37.33,3.68
37.75,2.82
38.17,2.79
38.59,3.23
39.01,3.85
39.43,4.60
39.85,4.90
40.27,4.39
40.70,3.66
41.12,3.31
41.54,3.42
41.96,4.03
42.38,4.64
42.80,5.24
43.22,6.83
43.64,8.24
44.06,9.17
44.48,10.12
44.90,11.03
45.32,10.64
45.74,8.95
46.16,7.73
46.58,7.61
47.00,7.38
47.42,6.47
47.85,5.52
48.27,4.79
48.69,4.53
49.11,4.27
49.53,4.35
49.95,5.23
50.37,7.00
50.79,10.22
51.21,15.72
51.63,23.63
52.05,31.78
52.47,36.16
52.89,34.46
53.31,28.13
53.73,20.46
54.15,14.04
54.58,9.84
55.00,8.75
55.42,7.65
55.84,6.94
56.26,7.05
56.68,7.42
57.10,7.88
57.52,8.32
57.94,8.58
58.36,8.85
58.78,9.27
59.20,9.38
59.62,8.90
60.04,8.68
60.46,9.59
60.88,11.00
61.30,11.30
61.73,11.61
62.15,10.80
62.57,8.75
62.99,6.41
63.41,4.85
63.83,4.38
64.25,4.68
64.67,5.23
65.09,5.67
65.51,5.92
65.93,6.06
66.35,6.55
66.77,7.52
67.19,7.85
67.61,7.28
68.03,6.71
68.45,5.21
68.88,4.63
69.30,4.37
69.72,3.34
70.14,1.96
70.56,1.17
70.98,0.94
71.40,0.80
71.82,0.66
72.24,0.66
72.66,0.50
73.08,-0.26
73.50,-0.99
73.92,-0.70
74.34,-0.40
74.76,1.40
75.18,2.78
75.61,2.73
76.03,1.86
76.45,1.30
76.87,1.55
77.29,2.30
77.71,3.11
78.13,4.10
78.55,5.30
78.97,5.76
79.39,4.82
79.81,3.79
80.23,3.84
80.65,3.89
81.07,4.15
81.49,3.47
81.91,2.48
82.33,2.27
82.76,2.71
83.18,3.05
83.60,3.18
84.02,3.51
84.44,3.98
84.86,4.10
85.28,3.64
85.70,2.65
86.12,1.86
86.54,2.04
86.96,2.22
87.38,3.36
87.80,3.64
88.22,2.43
88.64,0.82
89.06,0.07
89.48,0.40
89.91,1.21
90.33,1.81
90.75,1.95
91.17,1.75
91.59,1.50
92.01,1.56
92.43,1.61
92.85,1.48
93.27,1.35
93.69,1.41
94.11,1.73
94.53,1.41
94.95,0.74
95.37,0.60
95.79,1.06
96.21,1.39
96.64,1.28
97.06,1.44
97.48,2.22
97.90,3.19
98.32,4.30
98.74,5.51
99.16,5.79
99.58,6.07
100.00,5.84
101.00,5.84
101.52,6.62
102.04,7.36
102.56,7.28
103.08,6.50
103.61,5.46
104.13,4.83
104.65,4.96
105.17,5.21
105.69,5.18
106.21,5.01
106.73,4.62
107.25,4.23
107.77,4.35
108.29,4.47
108.82,5.28
109.34,5.78
109.86,5.42
110.38,4.77
110.90,4.46
111.42,4.24
111.94,3.82
112.46,3.77
112.98,4.84
113.51,6.54
114.03,7.48
114.55,7.05
115.07,5.94
115.59,5.41
116.11,4.88
116.63,3.75
117.15,2.57
117.67,2.13
118.19,2.76
118.72,3.71
119.24,4.70
119.76,5.75
120.28,6.08
120.80,5.30
121.32,4.44
121.84,4.38
122.36,4.64
122.88,4.54
123.41,4.32
123.93,4.11
124.45,3.49
124.97,2.43
125.49,1.18
126.01,0.75
126.53,1.92
127.05,4.09
127.57,5.69
128.09,6.22
128.62,6.56
129.14,7.18
129.66,7.76
130.18,8.01
130.70,7.55
131.22,6.89
131.74,6.23
132.26,4.64
132.78,3.56
133.31,3.14
133.83,3.16
134.35,3.42
134.87,3.63
135.39,3.77
135.91,4.52
136.43,5.91
136.95,6.77
137.47,6.52
137.99,5.84
138.52,5.21
139.04,4.92
139.56,4.62
140.08,4.28
140.60,4.41
141.12,4.61
141.64,4.55
142.16,4.54
142.68,4.91
143.21,5.65
143.73,6.46
144.25,6.88
144.77,6.90
145.29,7.09
145.81,7.48
146.33,7.56
146.85,7.42
147.37,7.28
147.89,6.96
148.42,7.10
148.94,8.30
149.46,9.99
149.98,10.48
150.50,9.04
151.02,6.76
151.54,5.59
152.06,6.90
152.58,10.22
153.11,13.88
153.63,16.67
154.15,18.00
154.67,17.91
155.19,17.82
155.71,16.99
156.23,16.52
156.75,16.56
157.27,16.62
157.79,16.17
158.32,15.06
158.84,14.05
159.36,13.89
159.88,14.35
160.40,14.94
160.92,15.49
161.44,15.69
161.96,15.63
162.48,15.58
163.01,15.52
163.53,14.85
164.05,13.57
164.57,13.15
165.09,14.64
165.61,16.72
166.13,17.20
166.65,16.05
167.17,15.21
167.69,15.63
168.22,16.43
168.74,16.76
169.26,16.81
169.78,16.96
170.30,17.04
170.82,17.12
171.34,17.08
171.86,16.89
172.38,16.72
172.91,16.78
173.43,17.10
173.95,17.47
174.47,18.21
174.99,19.65
175.51,21.37
176.03,22.92
176.55,24.42
177.07,26.19
177.59,28.25
178.12,29.15
178.64,30.05
179.16,31.03
179.68,31.72
180.20,33.51
180.72,37.13
181.24,41.32
181.76,43.92
182.28,44.71
182.81,45.43
183.33,47.08
183.85,49.12
184.37,50.95
184.89,52.60
185.41,54.28
185.93,55.21
186.45,56.13
186.97,58.13
187.49,59.99
188.02,61.40
188.54,62.90
189.06,65.29
189.58,67.89
190.10,69.23
190.62,69.41
191.14,69.63
191.66,70.39
192.18,71.63
192.71,73.43
193.23,75.88
193.75,77.42
194.27,78.96
194.79,82.37
195.31,85.50
195.83,87.86
196.35,89.48
196.87,90.94
197.39,92.95
197.92,96.03
198.44,99.97
198.96,103.85
199.48,107.09
200.00,109.93
201.00,112.92
201.59,116.48
202.17,118.40
202.76,120.33
203.34,123.37
203.93,125.34
204.51,127.25
205.10,129.89
205.69,133.35
206.27,137.54
206.86,141.93
207.44,145.80
208.03,149.35
208.62,153.18
209.20,157.12
209.79,160.70
210.37,164.33
210.96,166.53
211.54,168.74
212.13,173.46
212.72,177.22
213.30,180.24
213.89,184.79
214.47,192.20
215.06,200.31
215.64,206.34
216.23,210.72
216.82,215.64
217.40,221.95
217.99,229.02
218.57,235.83
219.16,241.61
219.75,243.96
220.33,246.30
220.92,250.47
221.50,254.40
222.09,258.12
222.67,262.73
223.26,269.39
223.85,277.17
224.43,284.39
225.02,291.03
225.60,297.97
226.19,305.38
226.78,313.02
227.36,320.85
227.95,328.99
228.53,333.30
229.12,337.60
229.70,346.56
230.29,355.42
230.88,364.22
231.46,373.67
232.05,383.53
232.63,392.30
233.22,399.74
233.80,406.80
234.39,413.46
234.98,419.54
235.56,425.77
236.15,432.95
236.73,441.71
237.32,447.04
237.91,452.36
238.49,463.83
239.08,474.42
239.66,484.05
240.25,494.35
240.83,505.89
241.42,517.22
242.01,526.99
242.59,535.37
243.18,543.12
243.76,550.43
244.35,557.25
244.93,563.84
245.52,570.36
246.11,576.84
246.69,580.26
247.28,583.67
247.86,590.82
248.45,597.85
249.04,605.13
249.62,613.15
250.21,620.73
250.79,625.85
251.38,628.28
251.96,629.75
252.55,632.01
253.14,635.67
253.72,640.30
254.31,645.36
254.89,650.85
255.48,653.73
256.07,656.62
256.65,662.12
257.24,666.73
257.82,669.67
258.41,670.61
258.99,670.34
259.58,669.94
260.17,669.48
260.75,668.19
261.34,666.13
261.92,665.54
262.51,668.61
263.09,674.83
263.68,682.66
264.27,687.28
264.85,691.90
265.44,701.78
266.02,709.95
266.61,715.33
267.20,719.02
267.78,722.39
268.37,726.19
268.95,730.19
269.54,733.21
270.12,734.74
270.71,735.79
271.30,737.45
271.88,740.25
272.47,744.40
273.05,746.90
273.64,749.39
274.22,754.25
274.81,758.66
275.40,762.66
275.98,766.02
276.57,768.55
277.15,770.04
277.74,769.55
278.33,766.74
278.91,763.48
279.50,762.17
280.08,763.22
280.67,765.44
281.25,767.88
281.84,769.20
282.43,770.52
283.01,773.71
283.60,777.44
284.18,781.49
284.77,785.98
285.36,791.09
285.94,795.96
286.53,798.46
287.11,796.81
287.70,792.14
288.28,788.36
288.87,788.10
289.46,790.32
290.04,793.04
290.63,794.50
291.21,795.97
291.80,799.18
292.38,801.88
292.97,804.20
293.56,807.12
294.14,810.53
294.73,813.53
295.31,815.87
295.90,817.59
296.49,818.86
297.07,820.61
297.66,823.65
298.24,827.30
298.83,830.32
299.41,831.44
300.00,832.56
301.00,835.29
301.70,839.82
302.39,846.22
303.09,854.06
303.79,863.05
304.49,871.53
305.18,877.32
305.88,880.85
306.58,884.02
307.27,886.51
307.97,887.42
308.67,888.01
309.37,890.04
310.06,891.94
310.76,893.84
311.46,898.23
312.15,901.03
312.85,900.11
313.55,894.63
314.25,885.86
314.94,876.10
315.64,866.07
316.34,855.65
317.04,845.92
317.73,837.31
318.43,828.40
319.13,818.78
319.82,809.84
320.52,806.09
321.22,802.33
321.92,795.64
322.61,789.64
323.31,785.32
324.01,782.90
324.70,780.95
325.40,778.62
326.10,776.56
326.80,774.73
327.49,772.01
328.19,768.17
328.89,764.27
329.58,760.96
330.28,758.21
330.98,757.48
331.68,756.76
332.37,757.55
333.07,760.10
333.77,763.51
334.46,768.25
335.16,774.93
335.86,782.92
336.56,791.20
337.25,798.66
337.95,803.46
338.65,804.80
339.35,804.19
340.04,802.77
340.74,799.23
341.44,796.02
342.13,792.82
342.83,785.84
343.53,779.97
344.23,773.69
344.92,765.97
345.62,758.67
346.32,753.39
347.01,749.44
347.71,745.75
348.41,742.55
349.11,741.38
349.80,743.52
350.50,747.76
351.20,751.56
351.89,752.76
352.59,753.97
353.29,755.17
353.99,754.92
354.68,752.83
355.38,749.36
356.08,746.35
356.77,745.27
357.47,744.74
358.17,742.13
358.87,737.06
359.56,731.14
360.26,726.43
360.96,724.17
361.65,723.08
362.35,722.09
363.05,721.10
363.75,718.47
364.44,716.49
365.14,715.38
365.84,715.19
366.54,715.87
367.23,716.18
367.93,715.10
368.63,713.39
369.32,711.87
370.02,710.06
370.72,707.53
371.42,704.33
372.11,700.35
372.81,698.53
373.51,696.71
374.20,695.74
374.90,698.09
375.60,702.34
376.30,707.35
376.99,712.53
377.69,716.76
378.39,719.56
379.08,722.08
379.78,724.92
380.48,726.75
381.18,727.08
381.87,727.58
382.57,728.93
383.27,729.15
383.96,729.37
384.66,727.79
385.36,725.79
386.06,724.89
386.75,723.51
387.45,719.47
388.15,713.52
388.85,707.82
389.54,703.00
390.24,698.62
390.94,694.26
391.63,690.35
392.33,688.84
393.03,691.79
393.73,695.50
394.42,699.20
395.12,709.31
395.82,719.80
396.51,727.88
397.21,731.86
397.91,732.79
398.61,732.83
399.30,733.23
400.00,734.04
401.00,734.84
401.72,735.29
402.45,735.36
403.17,735.40
403.89,736.14
404.61,736.81
405.34,737.47
406.06,738.63
406.78,739.14
407.50,737.79
408.23,732.33
408.95,722.13
409.67,709.26
410.39,696.31
411.12,684.18
411.84,672.81
412.56,662.50
413.28,653.30
414.01,644.14
414.73,633.89
415.45,622.54
416.18,616.84
416.90,611.15
417.62,601.54
418.34,595.17
419.07,591.39
419.79,588.06
420.51,584.44
421.23,581.89
421.96,581.39
422.68,582.39
423.40,584.63
424.12,587.75
424.85,589.60
425.57,588.66
426.29,586.18
427.01,584.55
427.74,582.92
428.46,577.87
429.18,571.26
429.91,565.09
430.63,560.86
431.35,558.42
432.07,556.75
432.80,555.55
433.52,555.27
434.24,555.84
434.96,557.01
435.69,558.67
436.41,559.89
437.13,559.64
437.85,558.78
438.58,557.92
439.30,554.80
440.02,549.83
440.74,543.92
441.47,539.07
442.19,535.29
442.91,531.15
443.64,526.49
444.36,522.37
445.08,519.75
445.80,518.90
446.53,519.15
447.25,519.36
447.97,519.17
448.69,519.33
449.42,519.49
450.14,520.69
450.86,521.57
451.58,521.55
452.31,521.62
453.03,521.60
453.75,520.14
454.47,517.26
455.20,514.59
455.92,513.33
456.64,512.72
457.36,510.41
458.09,505.30
458.81,499.32
459.53,497.10
460.26,494.88
460.98,492.13
461.70,489.88
462.42,487.62
463.15,485.37
463.87,482.89
464.59,479.70
465.31,475.17
466.04,468.81
466.76,461.64
467.48,456.22
468.20,454.01
468.93,453.38
469.65,451.52
470.37,449.56
471.09,447.59
471.82,443.40
472.54,441.09
473.26,440.42
473.99,439.41
474.71,436.88
475.43,433.11
476.15,429.11
476.88,425.94
477.60,423.54
478.32,420.59
479.04,416.74
479.77,413.31
480.49,410.89
481.21,409.76
481.93,408.62
482.66,405.80
483.38,402.55
484.10,399.25
484.82,396.22
485.55,393.82
486.27,392.01
486.99,390.54
487.72,390.12
488.44,391.92
489.16,395.76
489.88,399.84
490.61,401.95
491.33,401.27
492.05,399.95
492.77,398.64
493.50,394.55
494.22,388.72
494.94,382.30
495.66,377.27
496.39,373.81
497.11,370.81
497.83,368.39
498.55,367.20
499.28,366.22
500.00,363.58
501.00,359.19
502.01,354.71
503.02,351.22
504.03,349.91
505.04,348.60
506.05,346.77
507.06,345.90
508.07,345.64
509.08,345.82
510.09,346.90
511.10,348.25
512.11,347.86
513.12,345.02
514.13,340.94
515.14,336.44
516.15,331.38
517.16,325.77
518.17,320.24
519.18,318.13
520.19,316.03
521.20,313.71
522.21,312.28
523.22,310.81
524.23,309.50
525.24,308.00
526.26,305.75
527.27,303.54
528.28,301.88
529.29,299.73
530.30,296.30
531.31,291.90
532.32,287.03
533.33,282.64
534.34,280.98
535.35,279.33
536.36,276.20
537.37,272.34
538.38,268.25
539.39,265.07
540.40,263.49
541.41,263.38
542.42,264.01
543.43,264.96
544.44,266.40
545.45,268.37
546.46,270.40
547.47,271.62
548.48,271.53
549.49,270.97
550.50,270.41
551.51,268.64
552.52,266.74
553.53,265.46
554.54,265.04
555.55,265.07
556.56,265.04
557.57,264.65
558.58,264.39
559.59,265.14
560.60,266.58
561.61,267.14
562.62,266.10
563.63,264.55
564.64,264.31
565.65,264.07
566.66,264.48
567.67,263.79
568.68,260.59
569.69,255.35
570.70,249.95
571.71,246.39
572.72,244.92
573.73,243.88
574.74,242.07
575.76,239.82
576.77,237.66
577.78,235.51
578.79,233.06
579.80,231.69
580.81,230.32
581.82,227.96
582.83,226.98
583.84,227.40
584.85,227.87
585.86,227.25
586.87,225.77
587.88,224.05
588.89,222.02
589.90,219.35
590.91,216.34
591.92,213.77
592.93,211.93
593.94,210.15
594.95,209.03
595.96,207.90
596.97,205.61
597.98,203.92
598.99,202.78
600.00,201.77
601.00,200.82
602.18,199.99
603.36,199.44
604.54,199.88
605.71,201.62
606.89,203.53
608.07,204.54
609.25,205.20
610.43,206.25
611.61,206.84
612.79,207.44
613.96,208.49
615.14,209.24
616.32,209.05
617.50,207.54
618.68,204.88
619.86,201.37
621.04,197.79
622.21,195.15
623.39,192.97
624.57,190.00
625.75,187.11
626.93,186.19
628.11,186.38
629.29,185.43
630.46,184.62
631.64,183.80
632.82,182.99
634.00,181.88
635.18,179.14
636.36,176.06
637.54,173.94
638.71,172.27
639.89,171.25
641.07,171.75
642.25,172.71
643.43,172.05
644.61,169.32
645.79,165.65
646.96,162.35
648.14,161.10
649.32,159.85
650.50,157.56
651.68,154.95
652.86,152.51
654.04,150.83
655.21,149.46
656.39,148.00
657.57,147.05
658.75,147.02
659.93,147.66
661.11,148.35
662.29,148.23
663.46,147.29
664.64,146.58
665.82,146.55
667.00,146.53
668.18,146.61
669.36,146.06
670.54,144.53
671.71,142.61
672.89,141.35
674.07,140.77
675.25,140.04
676.43,138.85
677.61,137.56
678.79,136.26
679.96,134.84
681.14,133.45
682.32,132.45
683.50,132.25
684.68,132.05
685.86,131.83
687.04,130.80
688.21,128.52
689.39,125.63
690.57,123.01
691.75,121.00
692.93,119.31
694.11,117.80
695.29,116.98
696.46,117.22
697.64,117.75
698.82,117.55
700.00,116.54
701.00,115.87
702.98,115.21
704.96,113.79
706.94,112.43
708.92,111.57
710.90,111.64
712.88,112.26
714.86,112.08
716.84,110.36
718.82,108.27
720.80,106.96
722.78,105.90
724.76,104.21
726.74,102.38
728.72,101.62
730.70,101.88
732.68,102.15
734.66,103.17
736.64,103.98
738.62,104.44
740.60,104.48
742.58,103.85
744.56,102.46
746.54,101.11
748.52,100.44
750.50,99.84
752.48,98.82
754.46,98.07
756.44,98.17
758.42,98.72
760.40,98.78
762.38,98.84
764.36,98.09
766.34,97.03
768.32,96.61
770.30,96.88
772.28,97.18
774.26,97.71
776.24,99.18
778.22,100.76
780.20,100.70
782.18,98.68
784.16,95.94
786.14,93.87
788.12,93.11
790.10,93.10
792.08,93.10
794.06,93.13
796.04,92.88
798.02,91.83
800.00,89.91
801.00,88.04
803.36,87.07
805.71,86.67
808.07,85.53
810.43,83.45
812.79,81.91
815.14,81.52
817.50,81.44
819.86,81.35
822.21,81.35
824.57,81.35
826.93,80.77
829.29,79.17
831.64,77.51
834.00,77.03
836.36,77.47
838.71,77.50
841.07,76.48
843.43,75.03
845.79,73.64
848.14,72.08
850.50,70.90
852.86,71.40
855.21,73.02
857.57,73.24
859.93,73.45
862.29,71.92
864.64,69.93
867.00,68.97
869.36,69.08
871.71,68.88
874.07,66.94
876.43,63.90
878.79,61.57
881.14,60.44
883.50,59.73
885.86,58.95
888.21,58.12
890.57,57.20
892.93,56.73
895.29,56.26
897.64,55.28
900.00,53.77
901.00,52.13
904.67,51.93
908.33,53.29
912.00,54.24
915.67,53.54
919.33,52.13
923.00,51.54
926.67,51.95
930.33,52.14
934.00,50.94
937.67,48.64
941.33,47.56
945.00,46.49
948.67,45.02
952.33,44.10
956.00,43.76
959.67,43.79
963.33,43.17
967.00,41.12
970.67,38.73
974.33,37.94
978.00,38.72
981.67,39.08
985.33,37.94
989.00,36.08
992.67,34.54
996.33,34.20
1000.00,33.87
1001.00,34.15
1006.10,34.43
1011.21,33.59
1016.31,32.11
1021.41,31.26
1026.51,31.08
1031.62,30.70
1036.72,29.92
1041.82,29.19
1046.92,29.07
1052.03,29.51
1057.13,29.38
1062.23,28.34
1067.33,28.20
1072.44,28.07
1077.54,29.26
1082.64,29.92
1087.74,28.90
1092.85,27.44
1097.95,26.58
1103.05,26.21
1108.15,25.93
1113.26,25.29
1118.36,23.77
1123.46,21.48
1128.56,19.31
1133.67,18.17
1138.77,18.48
1143.87,19.36
1148.97,20.25
1154.08,22.52
1159.18,23.33
1164.28,21.71
1169.38,18.97
1174.49,16.90
1179.59,15.85
1184.69,15.51
1189.79,15.57
1194.90,15.82
1200.00,16.15
1201.00,16.08
1210.06,14.94
1219.12,13.14
1228.18,12.60
1237.24,12.06
1246.30,12.35
1255.36,13.21
1264.42,13.62
1273.48,13.12
1282.55,11.81
1291.61,10.56
1300.67,10.36
1309.73,10.94
1318.79,11.20
1327.85,10.80
1336.91,10.33
1345.97,10.13
1355.03,9.85
1364.09,9.52
1373.15,9.55
1382.21,9.59
1391.27,10.06
1400.33,10.45
1409.39,10.04
1418.45,8.62
1427.52,7.09
1436.58,6.73
1445.64,8.00
1454.70,10.10
1463.76,11.57
1472.82,11.52
1481.88,10.40
1490.94,9.32
1500.00,8.67
1501.00,8.42
1510.24,8.17
1519.48,8.15
1528.72,8.70
1537.96,8.72
1547.20,8.03
1556.44,8.03
1565.69,8.88
1574.93,9.11
1584.17,8.44
1593.41,8.09
1602.65,8.56
1611.89,9.37
1621.13,10.37
1630.37,11.23
1639.61,11.11
1648.85,10.98
1658.09,9.75
1667.33,8.91
1676.57,8.94
1685.81,9.21
1695.06,9.32
1704.30,9.07
1713.54,7.88
1722.78,5.70
1732.02,3.87
1741.26,4.00
1750.50,5.89
1759.74,7.98
1768.98,9.44
1778.22,9.81
1787.46,10.18
1796.70,10.11
1805.94,9.85
1815.19,10.26
1824.43,11.01
1833.67,11.09
1842.91,10.54
1852.15,10.23
1861.39,10.06
1870.63,9.41
1879.87,8.69
1889.11,8.44
1898.35,8.25
1907.59,7.85
1916.83,7.65
1926.07,7.46
1935.31,7.20
1944.56,7.20
1953.80,7.79
1963.04,8.58
1972.28,8.55
1981.52,7.95
1990.76,7.88
2000.00,8.16
2001.00,8.24
2018.22,8.69
2035.45,10.04
2052.67,11.37
2069.90,11.32
2087.12,10.60
2104.34,9.89
2121.57,8.67
2138.79,8.92
2156.02,10.00
2173.24,10.94
2190.47,11.85
2207.69,12.86
2224.91,13.71
2242.14,14.21
2259.36,14.09
2276.59,12.88
2293.81,10.81
2311.03,9.14
2328.26,8.97
2345.48,9.37
2362.71,9.76
2379.93,10.27
2397.16,10.13
2414.38,9.64
2431.60,9.07
2448.83,8.79
2466.05,8.90
2483.28,9.24
2500.50,10.37
2517.72,12.28
2534.95,13.20
2552.17,12.08
2569.40,10.22
2586.62,9.05
2603.84,8.72
2621.07,8.39
2638.29,7.91
2655.52,8.15
2672.74,9.40
2689.97,11.01
2707.19,11.93
2724.41,11.82
2741.64,11.84
2758.86,12.90
2776.09,13.94
2793.31,13.77
2810.53,12.77
2827.76,11.44
2844.98,9.80
2862.21,9.22
2879.43,8.63
2896.66,8.99
2913.88,10.45
2931.10,11.57
2948.33,11.79
2965.55,11.44
2982.78,10.50
3000.00,8.92
3001.00,7.97
3025.99,8.99
3050.98,10.96
3075.98,11.66
3100.97,10.48
3125.96,8.59
3150.95,8.05
3175.94,7.51
3200.93,7.98
3225.93,9.48
3250.92,10.95
3275.91,12.03
3300.90,12.86
3325.89,13.36
3350.88,13.41
3375.87,12.85
3400.87,11.62
3425.86,10.32
3450.85,9.73
3475.84,9.67
3500.83,9.33
3525.82,8.82
3550.82,8.31
3575.81,6.97
3600.80,6.02
3625.79,5.91
3650.78,6.46
3675.77,7.22
3700.77,7.84
3725.76,7.99
3750.75,7.67
3775.74,6.75
3800.73,4.87
3825.73,2.53
3850.72,1.37
3875.71,2.52
3900.70,3.84
3925.69,5.16
3950.68,7.38
3975.68,7.82
4000.67,6.73
4025.66,5.59
4050.65,5.40
4075.64,5.65
4100.63,5.51
4125.62,5.31
4150.62,5.61
4175.61,5.72
4200.60,5.02
4225.59,4.49
4250.58,5.01
4275.58,5.44
4300.57,5.88
4325.56,6.49
4350.55,7.18
4375.54,7.92
4400.53,8.09
4425.52,7.70
4450.52,7.20
4475.51,6.72
4500.50,6.28
4525.49,5.86
4550.48,5.41
4575.48,5.55
4600.47,6.63
4625.46,7.46
4650.45,7.34
4675.44,7.21
4700.43,6.82
4725.42,6.89
4750.42,6.81
4775.41,6.52
4800.40,6.31
4825.39,5.83
4850.38,5.02
4875.37,4.77
4900.37,5.37
4925.36,5.82
4950.35,5.28
4975.34,4.04
5000.33,3.12
5025.33,3.29
5050.32,3.45
5075.31,5.42
5100.30,8.10
5125.29,9.72
5150.28,9.69
5175.27,8.87
5200.27,8.43
5225.26,8.91
5250.25,9.65
5275.24,9.82
5300.23,9.83
5325.23,10.36
5350.22,11.16
5375.21,11.56
5400.20,11.49
5425.19,11.41
5450.18,10.68
5475.17,9.41
5500.17,8.26
5525.16,7.79
5550.15,7.59
5575.14,7.20
5600.13,7.39
5625.12,9.47
5650.12,14.94
5675.11,27.25
5700.10,53.13
5725.09,102.66
5750.08,188.24
5775.08,253.89
5800.07,319.54
5825.06,497.07
5850.05,710.43
5875.04,939.99
5900.03,1157.70
5925.02,1329.69
5950.02,1425.56
5975.01,1429.22
6000.00,1342.58
6024.79,1182.88
6049.64,978.13
6074.48,760.77
6099.32,559.24
6124.16,391.43
6149.01,263.26
6173.85,217.54
6198.69,171.82
6223.53,110.33
6248.38,71.75
6273.22,50.03
6298.06,39.58
6322.90,35.05
6347.75,32.44
6372.59,30.13
6397.43,28.38
6422.27,27.68
6447.12,27.53
6471.96,27.12
6496.80,26.39
6521.65,25.48
6546.49,24.94
6571.33,24.41
6596.17,23.20
6621.02,21.67
6645.86,19.57
6670.70,16.99
6695.54,14.21
6720.39,12.02
6745.23,11.42
6770.07,11.82
6794.91,11.61
6819.76,10.70
6844.60,10.55
6869.44,11.14
6894.28,10.91
6919.13,10.28
6943.97,9.66
6968.81,8.96
6993.65,9.48
7018.50,10.13
7043.34,10.04
7068.18,9.65
7093.02,9.68
7117.87,10.22
7142.71,10.86
7167.55,11.25
7192.39,11.55
7217.24,12.00
7242.08,12.46
7266.92,12.93
7291.77,13.19
7316.61,13.46
7341.45,13.59
7366.29,13.12
7391.14,12.40
7415.98,11.69
7440.82,11.17
7465.66,10.86
7490.51,10.30
7515.35,8.99
7540.19,7.08
7565.03,5.76
7589.88,5.77
7614.72,6.16
7639.56,5.87
7664.40,5.50
7689.25,5.14
7714.09,4.43
7738.93,3.75
7763.77,2.94
7788.62,1.89
7813.46,1.02
7838.30,1.35
7863.14,2.85
7887.99,3.79
7912.83,3.38
7937.67,3.17
7962.51,4.28
7987.36,5.70
8012.20,6.19
8037.04,6.04
8061.89,5.89
8086.73,5.55
8111.57,5.31
8136.41,4.86
8161.26,4.24
8186.10,4.04
8210.94,4.57
8235.78,5.28
8260.63,5.21
8285.47,4.42
8310.31,4.06
8335.15,4.73
8360.00,5.70
8384.84,6.03
8409.68,5.84
8434.52,5.64
8459.37,5.24
8484.21,5.13
8509.05,4.80
8533.89,4.06
8558.74,3.39
8583.58,3.11
8608.42,3.01
8633.26,2.80
8658.11,2.45
8682.95,2.38
8707.79,2.78
8732.63,3.40
8757.48,3.87
8782.32,3.91
8807.16,3.94
8832.00,3.60
8856.85,3.31
8881.69,3.25
8906.53,3.03
8931.37,2.94
8956.22,3.69
8981.06,4.97
9005.90,5.96
9030.75,6.46
9055.59,6.65
9080.43,6.69
9105.27,6.84
9130.12,6.99
9154.96,6.85
9179.80,6.70
9204.64,5.97
9229.49,5.50
9254.33,5.45
9279.17,5.14
9304.01,4.52
9328.86,4.38
9353.70,4.61
9378.54,4.29
9403.38,3.56
9428.23,3.31
9453.07,3.51
9477.91,3.57
9502.75,3.23
9527.60,2.95
9552.44,2.67
9577.28,2.70
9602.12,3.92
9626.97,5.46
9651.81,5.93
9676.65,5.18
9701.50,4.02
9726.34,3.04
9751.18,2.40
9776.02,2.31
9800.87,2.69
9825.71,2.97
9850.55,2.70
9875.39,1.92
9900.24,1.59
9925.08,1.25
9949.92,1.40
9974.76,2.10
9999.61,2.62
10024.45,3.04
10049.29,3.93
10074.13,4.82
10098.98,4.33
10123.82,2.31
10148.66,0.66
10173.50,0.47
10198.35,0.69
10223.19,0.38
10248.03,-0.23
10272.87,-0.50
10297.72,-0.77
10322.56,-0.77
10347.40,0.42
10372.25,2.29
10397.09,3.11
10421.93,2.12
10446.77,0.72
10471.62,0.55
10496.46,1.85
10521.30,3.46
10546.14,3.91
10570.99,2.82
10595.83,1.07
10620.67,-0.07
10645.51,0.10
10670.36,0.28
10695.20,1.86
10720.04,3.34
10744.88,3.72
10769.73,3.20
10794.57,2.50
10819.41,1.86
10844.25,1.49
10869.10,1.74
10893.94,2.30
10918.78,2.54
10943.62,2.45
10968.47,2.18
10993.31,1.69
11018.15,1.46
11043.00,1.23
11067.84,1.22
11092.68,1.61
11117.52,2.19
11142.37,2.69
11167.21,2.80
11192.05,2.52
11216.89,2.20
11241.74,1.90
11266.58,1.36
11291.42,0.69
11316.26,0.44
11341.11,0.69
11365.95,1.16
11390.79,1.56
11415.63,1.96
11440.48,3.08
11465.32,3.65
11490.16,2.91
11515.00,1.70
11539.85,1.15
11564.69,1.00
11589.53,0.42
11614.37,-0.61
11639.22,-1.59
11664.06,-1.81
11688.90,-1.00
11713.74,-0.06
11738.59,0.04
11763.43,-0.26
11788.27,-0.56
11813.12,-1.04
11837.96,-0.72
11862.80,0.37
11887.64,1.36
11912.49,1.59
11937.33,1.41
11962.17,1.02
11987.01,0.21
12011.86,-0.46
12036.70,-0.04
12061.54,1.37
12086.38,2.88
12111.23,3.65
12136.07,3.46
12160.91,3.28
12185.75,2.56
12210.60,2.70
12235.44,3.48
12260.28,3.56
12285.12,2.33
12309.97,0.57
12334.81,-0.51
12359.65,-0.60
12384.49,-0.34
12409.34,0.27
12434.18,1.87
12459.02,3.82
12483.86,4.47
12508.71,3.50
12533.55,2.81
12558.39,2.13
12583.24,1.14
12608.08,0.50
12632.92,0.18
12657.76,0.22
12682.61,0.21
12707.45,-0.26
12732.29,-0.57
12757.13,-0.19
12781.98,0.23
12806.82,0.22
12831.66,0.28
12856.50,0.97
12881.35,2.11
12906.19,2.39
12931.03,2.66
12955.87,1.79
12980.72,0.44
13005.56,0.15
13030.40,0.79
13055.24,1.39
13080.09,1.70
13104.93,2.00
13129.77,2.50
13154.61,3.55
13179.46,5.10
13204.30,6.07
13229.14,5.57
13253.98,4.33
13278.83,3.98
13303.67,3.63
13328.51,3.43
13353.35,3.00
13378.20,2.48
13403.04,2.29
13427.88,1.92
13452.73,1.16
13477.57,0.96
13502.41,1.55
13527.25,1.72
13552.10,1.15
13576.94,1.15
13601.78,2.20
13626.62,3.15
13651.47,3.26
13676.31,3.37
13701.15,3.36
13725.99,3.37
13750.84,2.94
13775.68,1.97
13800.52,1.43
13825.36,1.94
13850.21,2.93
13875.05,3.52
13899.89,3.42
13924.73,2.78
13949.58,2.14
13974.42,1.92
13999.26,2.05
14024.10,2.14
14048.95,2.23
14073.79,2.11
14098.63,1.49
14123.47,0.99
14148.32,1.16
14173.16,1.44
14198.00,1.26
14222.85,0.81
14247.69,0.37
14272.53,0.12
14297.37,0.40
14322.22,1.41
14347.06,2.75
14371.90,3.74
14396.74,3.78
14421.59,3.82
14446.43,3.01
14471.27,1.98
14496.11,1.34
14520.96,1.20
14545.80,1.50
14570.64,1.82
14595.48,1.67
14620.33,1.31
14645.17,1.36
14670.01,1.89
14694.85,2.79
14719.70,3.96
14744.54,4.96
14769.38,4.91
14794.22,4.85
14819.07,3.32
14843.91,1.60
14868.75,1.12
14893.59,1.78
14918.44,2.45
14943.28,2.50
14968.12,2.22
14992.97,1.99
15017.81,1.65
15042.65,0.96
15067.49,0.24
15092.34,0.21
15117.18,0.89
15142.02,1.14
15166.86,1.39
15191.71,1.47
15216.55,1.51
15241.39,1.36
15266.23,0.80
15291.08,0.07
15315.92,-0.68
15340.76,-1.31
15365.60,-1.51
15390.45,-0.79
15415.29,0.93
15440.13,2.53
15464.97,3.36
15489.82,4.47
15514.66,5.24
15539.50,6.02
15564.34,6.31
15589.19,4.74
15614.03,2.63
15638.87,1.13
15663.71,0.27
15688.56,-0.13
15713.40,-0.18
15738.24,-0.02
15763.08,0.37
15787.93,0.89
15812.77,0.83
15837.61,0.05
15862.46,-0.37
15887.30,-0.26
15912.14,-0.15
15936.98,-0.32
15961.83,-0.68
15986.67,0.02
16011.51,1.38
16036.35,1.96
16061.20,1.67
16086.04,1.36
16110.88,1.31
16135.72,1.39
16160.57,1.71
16185.41,2.27
16210.25,2.54
16235.09,2.15
16259.94,1.98
16284.78,1.82
16309.62,2.26
16334.46,2.79
16359.31,2.36
16384.15,0.95
16408.99,-0.49
16433.84,-0.94
16458.68,-0.25
16483.52,0.58
16508.36,0.55
16533.21,-0.15
16558.05,-0.52
16582.89,-0.23
16607.73,0.01
16632.58,0.02
16657.42,0.03
16682.26,0.61
16707.10,1.41
16731.95,1.22
16756.79,0.42
16781.63,0.33
16806.47,0.86
16831.32,1.29
16856.16,1.65
16881.00,1.68
16905.84,0.67
16930.69,-0.71
16955.53,-0.86
16980.37,0.30
17005.21,0.94
17030.06,1.58
17054.90,2.34
17079.74,2.58
17104.58,2.41
17129.43,2.27
17154.27,2.37
17179.11,2.43
17203.96,2.59
17228.80,3.15
17253.64,3.65
17278.48,3.45
17303.33,2.86
17328.17,2.50
17353.01,2.30
17377.85,2.14
17402.70,1.99
17427.54,1.91
17452.38,2.40
17477.22,2.71
17502.07,2.29
17526.91,2.32
17551.75,3.62
17576.59,4.83
17601.44,4.59
17626.28,3.16
17651.12,1.47
17675.96,0.24
17700.81,-0.50
17725.65,-1.04
17750.49,-1.36
17775.33,-1.68
17800.18,-2.26
17825.02,-1.86
17849.86,-0.35
17874.71,0.56
17899.55,-0.19
17924.39,-1.12
17949.23,-1.00
17974.07,-0.50
17998.92,-0.23
18023.76,0.01
18048.60,0.04
18073.45,-0.29
18098.29,-0.46
18123.13,-0.29
18147.97,-0.11
18172.82,0.70
18197.66,1.69
18222.50,1.98
18247.34,1.19
18272.19,0.33
18297.03,0.36
18321.87,0.68
18346.71,0.23
18371.56,-0.74
18396.40,-1.16
18421.24,-0.97
18446.08,-0.96
18470.93,-0.89
18495.77,0.02
18520.61,0.59
18545.46,1.16
