Size (bp),Intensity
0.58,2511.52
1.00,2128.07
2.00,1435.67
2.42,792.36
2.84,385.71
3.26,194.59
3.68,122.34
4.10,99.33
4.52,95.02
4.94,95.92
5.36,96.82
5.79,98.15
6.21,96.25
6.63,91.17
7.05,83.46
7.47,72.85
7.89,59.96
8.31,47.28
8.73,37.19
9.15,30.39
9.57,26.57
9.99,24.79
10.41,23.50
10.83,21.70
11.25,19.96
11.67,19.10
12.09,18.68
12.52,17.58
12.94,16.64
13.36,15.70
13.78,13.88
14.20,12.43
14.62,11.15
15.04,10.16
15.46,9.89
15.88,10.35
16.30,11.02
16.72,11.93
17.14,13.16
17.56,13.94
17.98,13.76
18.40,12.78
18.82,11.33
19.24,9.95
19.67,8.86
20.09,7.62
20.51,6.23
20.93,5.36
21.35,5.27
21.77,5.19
22.19,5.39
22.61,6.07
23.03,7.25
23.45,7.97
23.87,7.35
24.29,5.79
24.71,4.65
25.13,5.18
25.55,7.08
25.97,8.33
26.39,7.88
26.82,6.74
27.24,5.67
27.66,4.41
28.08,3.36
28.50,3.41
28.92,4.37
29.34,5.08
29.76,4.97
30.18,4.86
30.60,4.24
31.02,3.96
31.44,4.06
31.86,4.59
32.28,6.05
32.70,7.83
33.12,8.24
33.55,6.76
33.97,4.73
34.39,3.75
34.81,4.51
35.23,6.68
35.65,9.11
36.07,10.67
36.49,11.44
36.91,11.91
37.33,12.10
37.75,12.10
38.17,12.09
38.59,11.91
39.01,11.19
39.43,10.07
39.85,9.31
40.27,9.54
40.70,11.02
41.12,13.33
41.54,15.73
41.96,17.73
42.38,18.86
42.80,18.35
43.22,16.33
43.64,14.35
44.06,13.20
44.48,11.73
44.90,9.21
45.32,7.01
45.74,7.07
46.16,8.22
46.58,9.37
47.00,11.67
47.42,12.11
47.85,10.90
48.27,9.09
48.69,7.31
49.11,5.70
49.53,4.27
49.95,3.21
50.37,2.84
50.79,3.14
51.21,3.80
51.63,4.61
52.05,5.38
52.47,5.64
52.89,4.87
53.31,3.06
53.73,1.25
54.15,0.90
54.58,1.39
55.00,1.89
55.42,2.81
55.84,3.08
56.26,2.91
56.68,2.34
57.10,1.56
57.52,1.05
57.94,0.78
58.36,0.19
58.78,-0.85
59.20,-1.30
59.62,-0.42
60.04,0.86
60.46,1.80
60.88,2.99
61.30,4.61
61.73,5.80
62.15,5.88
62.57,5.26
62.99,4.63
63.41,2.42
63.83,0.28
64.25,-1.14
64.67,-2.01
65.09,-2.12
65.51,-0.96
65.93,0.95
66.35,2.67
66.77,4.04
67.19,4.92
67.61,4.73
68.03,3.77
68.45,3.39
68.88,3.98
69.30,4.29
69.72,3.81
70.14,3.59
70.56,4.57
70.98,5.24
71.40,5.91
71.82,5.92
72.24,4.53
72.66,3.58
73.08,4.02
73.50,5.01
73.92,5.59
74.34,5.42
74.76,4.35
75.18,2.72
75.61,1.57
76.03,1.57
76.45,2.33
76.87,2.69
77.29,2.10
77.71,1.42
78.13,1.54
78.55,1.91
78.97,1.85
79.39,1.78
79.81,1.76
80.23,2.24
80.65,2.65
81.07,2.88
81.49,3.50
81.91,4.37
82.33,4.62
82.76,4.12
83.18,3.30
83.60,2.25
84.02,1.18
84.44,0.53
84.86,0.36
85.28,0.42
85.70,0.74
86.12,1.62
86.54,2.96
86.96,4.08
87.38,4.42
87.80,4.77
88.22,5.37
88.64,5.59
89.06,5.39
89.48,5.59
89.91,6.19
90.33,6.12
90.75,5.20
91.17,4.36
91.59,4.27
92.01,4.94
92.43,5.93
92.85,6.31
93.27,5.33
93.69,3.47
94.11,2.11
94.53,1.93
94.95,2.37
95.37,2.64
95.79,2.57
96.21,2.50
96.64,2.27
97.06,2.15
97.48,1.62
97.90,0.25
98.32,-1.12
98.74,-1.18
99.16,0.31
99.58,2.40
100.00,3.58
101.00,2.72
101.52,0.54
102.04,-0.97
102.56,-0.80
103.08,0.31
103.61,1.21
104.13,1.60
104.65,1.92
105.17,2.05
105.69,2.19
106.21,1.61
106.73,-0.18
107.25,-1.94
107.77,-2.21
108.29,-1.34
108.82,-0.75
109.34,-0.64
109.86,-0.15
110.38,0.84
110.90,1.33
111.42,0.63
111.94,-0.49
112.46,-0.71
112.98,-0.10
113.51,0.14
114.03,-0.29
114.55,-0.84
115.07,-1.26
115.59,-1.32
116.11,-1.38
116.63,-0.86
117.15,0.10
117.67,0.51
118.19,-0.46
118.72,-2.11
119.24,-2.78
119.76,-2.26
120.28,-1.91
120.80,-2.13
121.32,-1.83
121.84,-0.29
122.36,1.66
122.88,2.34
123.41,1.25
123.93,0.09
124.45,0.46
124.97,1.52
125.49,1.57
126.01,1.62
126.53,0.65
127.05,-0.41
127.57,-1.04
128.09,-1.13
128.62,-0.58
129.14,0.34
129.66,1.16
130.18,1.79
130.70,2.37
131.22,2.64
131.74,2.26
132.26,1.47
132.78,0.69
133.31,0.13
133.83,-0.18
134.35,-0.17
134.87,0.16
135.39,0.52
135.91,0.53
136.43,0.54
136.95,0.03
137.47,-1.11
137.99,-2.37
138.52,-2.63
139.04,-1.97
139.56,-2.14
140.08,-3.73
140.60,-5.01
141.12,-4.60
141.64,-3.07
142.16,-1.42
142.68,-0.01
143.21,0.85
143.73,0.66
144.25,-0.27
144.77,-0.86
145.29,-0.50
145.81,0.46
146.33,0.79
146.85,1.12
147.37,0.82
147.89,0.06
148.42,-0.01
148.94,0.76
149.46,1.32
149.98,1.03
150.50,0.39
151.02,-0.14
151.54,-0.85
152.06,-1.29
152.58,-0.25
153.11,1.39
153.63,1.47
154.15,0.41
154.67,0.28
155.19,1.01
155.71,1.17
156.23,0.90
156.75,0.63
157.27,0.37
157.79,0.73
158.32,1.26
158.84,1.38
159.36,0.85
159.88,0.52
160.40,1.42
160.92,3.11
161.44,4.42
161.96,5.13
162.48,6.03
163.01,7.51
163.53,9.08
164.05,10.57
164.57,12.30
165.09,13.87
165.61,14.69
166.13,15.24
166.65,15.71
167.17,16.19
167.69,17.37
168.22,18.50
168.74,19.62
169.26,20.36
169.78,20.76
170.30,22.10
170.82,24.81
171.34,27.84
171.86,31.44
172.38,37.16
172.91,45.07
173.43,52.72
173.95,56.81
174.47,55.88
174.99,50.91
175.51,43.96
176.03,37.70
176.55,34.36
177.07,33.70
177.59,33.04
178.12,31.04
178.64,27.81
179.16,24.22
179.68,20.27
180.20,16.05
180.72,12.65
181.24,10.62
181.76,9.16
182.28,7.41
182.81,5.88
183.33,5.51
183.85,5.81
184.37,5.55
184.89,4.75
185.41,4.33
185.93,4.46
186.45,4.56
186.97,4.60
187.49,4.64
188.02,5.55
188.54,7.05
189.06,7.67
189.58,7.19
190.10,6.89
190.62,7.39
191.14,7.90
191.66,7.40
192.18,6.36
192.71,6.25
193.23,7.43
193.75,8.87
194.27,9.92
194.79,10.69
195.31,11.13
195.83,11.05
196.35,10.56
196.87,9.79
197.39,9.36
197.92,8.92
198.44,8.05
198.96,7.38
199.48,7.35
200.00,7.79
201.00,8.06
201.59,8.24
202.17,8.87
202.76,10.14
203.34,11.54
203.93,12.38
204.51,12.46
205.10,11.80
205.69,10.68
206.27,10.05
206.86,10.35
207.44,11.04
208.03,11.74
208.62,12.12
209.20,12.50
209.79,13.16
210.37,13.30
210.96,12.43
211.54,10.57
212.13,8.68
212.72,7.81
213.30,8.16
213.89,9.27
214.47,10.48
215.06,11.11
215.64,10.98
216.23,10.35
216.82,9.26
217.40,8.14
217.99,7.73
218.57,7.67
219.16,7.05
219.75,6.34
220.33,6.52
220.92,6.70
221.50,8.06
222.09,9.00
222.67,8.66
223.26,7.68
223.85,6.64
224.43,5.59
225.02,5.38
225.60,6.83
226.19,9.13
226.78,10.43
227.36,10.02
227.95,9.07
228.53,9.04
229.12,9.87
229.70,10.40
230.29,9.98
230.88,9.24
231.46,9.34
232.05,9.97
232.63,10.60
233.22,12.34
233.80,13.89
234.39,15.05
234.98,15.60
235.56,15.84
236.15,17.12
236.73,20.11
237.32,23.52
237.91,25.84
238.49,26.70
239.08,26.55
239.66,26.13
240.25,26.35
240.83,27.98
241.42,30.84
242.01,33.97
242.59,36.83
243.18,37.90
243.76,38.98
244.35,39.56
244.93,39.26
245.52,40.36
246.11,43.21
246.69,45.90
247.28,47.92
247.86,50.61
248.45,54.49
249.04,58.82
249.62,62.57
250.21,64.75
250.79,65.34
251.38,65.66
251.96,66.97
252.55,70.12
253.14,75.79
253.72,84.08
254.31,94.03
254.89,99.04
255.48,104.05
256.07,112.35
256.65,117.78
257.24,120.34
257.82,120.43
258.41,118.30
258.99,115.12
259.58,112.72
260.17,112.53
260.75,115.79
261.34,123.52
261.92,135.53
262.51,150.95
263.09,170.67
263.68,197.22
264.27,232.09
264.85,274.06
265.44,319.97
266.02,366.41
266.61,389.04
267.20,411.66
267.78,456.77
268.37,503.92
268.95,552.56
269.54,597.21
270.12,630.38
270.71,649.93
271.30,663.76
271.88,687.73
272.47,739.69
273.05,833.23
273.64,972.89
274.22,1152.04
274.81,1354.25
275.40,1560.54
275.98,1760.80
276.57,1959.18
277.15,2168.81
277.74,2287.09
278.33,2405.36
278.91,2690.29
279.50,3063.49
280.08,3590.12
280.67,4337.05
281.25,5323.05
281.84,6516.71
282.43,7972.01
283.01,10029.70
283.60,13253.11
284.18,17863.86
284.77,23077.90
285.36,27124.20
285.94,28207.45
286.53,25750.37
287.11,20807.43
287.70,15222.90
288.28,10411.68
288.87,6870.69
289.46,5670.86
290.04,4471.03
290.63,2898.71
291.21,1884.09
291.80,1247.06
292.38,868.62
292.97,660.60
293.56,555.94
294.14,508.13
294.73,488.17
295.31,479.80
295.90,474.47
296.49,466.29
297.07,449.63
297.66,421.40
298.24,383.45
298.83,340.55
299.41,297.15
300.00,256.99
301.00,239.79
301.70,222.59
302.39,194.16
303.09,171.00
303.79,152.63
304.49,137.87
305.18,125.58
305.88,115.80
306.58,107.96
307.27,99.98
307.97,91.17
308.67,83.03
309.37,76.08
310.06,69.24
310.76,62.54
311.46,57.36
312.15,54.22
312.85,52.69
313.55,53.05
314.25,56.02
314.94,58.35
315.64,60.68
316.34,64.31
317.04,64.55
317.73,60.73
318.43,53.57
319.13,44.81
319.82,36.25
320.52,28.61
321.22,21.87
321.92,16.50
322.61,13.42
323.31,12.44
324.01,11.77
324.70,10.24
325.40,8.79
326.10,8.62
326.80,9.35
327.49,9.76
328.19,9.35
328.89,8.99
329.58,8.64
330.28,7.84
330.98,6.22
331.68,3.85
332.37,2.17
333.07,1.47
333.77,0.91
334.46,0.74
335.16,1.48
335.86,2.51
336.56,3.34
337.25,4.06
337.95,4.38
338.65,4.12
339.35,4.14
340.04,5.05
340.74,5.88
341.44,5.54
342.13,5.06
342.83,4.59
343.53,4.18
344.23,4.20
344.92,3.64
345.62,2.35
346.32,1.21
347.01,0.79
347.71,0.87
348.41,1.21
349.11,1.68
349.80,2.06
350.50,2.15
351.20,2.09
351.89,2.21
352.59,2.49
353.29,2.45
353.99,1.84
354.68,1.14
355.38,0.85
356.08,0.86
356.77,0.87
357.47,0.71
358.17,0.08
358.87,-0.89
359.56,-1.60
360.26,-1.48
360.96,-0.55
361.65,0.44
362.35,0.74
363.05,0.15
363.75,-0.69
364.44,-0.71
365.14,0.28
365.84,1.10
366.54,0.82
367.23,-0.02
367.93,-0.50
368.63,-0.44
369.32,-0.29
370.02,-0.15
370.72,-0.26
371.42,-1.22
372.11,-2.69
372.81,-3.73
373.51,-3.53
374.20,-2.01
374.90,-0.24
375.60,0.91
376.30,1.52
376.99,1.47
377.69,0.73
378.39,0.45
379.08,1.42
379.78,2.36
380.48,1.72
381.18,-0.04
381.87,-1.42
382.57,-1.91
383.27,-1.79
383.96,-1.67
384.66,-0.92
385.36,-0.49
386.06,-1.25
386.75,-2.51
387.45,-2.86
388.15,-1.81
388.85,0.18
389.54,2.20
390.24,3.22
390.94,2.86
391.63,1.66
392.33,0.57
393.03,0.45
393.73,1.33
394.42,2.40
395.12,3.20
395.82,3.68
396.51,3.47
397.21,3.10
397.91,2.74
398.61,2.33
399.30,1.98
400.00,0.92
401.00,-0.14
401.72,-0.39
402.45,-0.49
403.17,-0.86
403.89,-0.64
404.61,0.41
405.34,1.21
406.06,1.07
406.78,0.82
407.50,1.39
408.23,1.78
408.95,0.51
409.67,-1.65
410.39,-2.54
411.12,-2.08
411.84,-1.63
412.56,-0.25
413.28,0.36
414.01,-0.02
414.73,-1.18
415.45,-2.38
416.18,-2.40
416.90,-0.98
417.62,0.76
418.34,1.86
419.07,2.42
419.79,3.07
420.51,3.96
421.23,4.42
421.96,3.89
422.68,2.99
423.40,2.96
424.12,4.27
424.85,6.01
425.57,6.48
426.29,6.95
427.01,6.50
427.74,4.72
428.46,2.49
429.18,0.79
429.91,-0.11
430.63,-0.04
431.35,1.16
432.07,2.85
432.80,3.93
433.52,4.09
434.24,4.10
434.96,4.48
435.69,4.56
436.41,4.09
437.13,4.08
437.85,4.71
438.58,5.07
439.30,4.81
440.02,4.40
440.74,4.00
441.47,2.83
442.19,1.93
442.91,1.76
443.64,2.03
444.36,2.12
445.08,1.99
445.80,1.85
446.53,1.35
447.25,0.53
447.97,0.64
448.69,2.03
449.42,3.12
450.14,2.81
450.86,1.89
451.58,1.70
452.31,2.82
453.03,4.54
453.75,5.06
454.47,5.57
455.20,5.33
455.92,4.27
456.64,3.16
457.36,2.29
458.09,1.54
458.81,1.06
459.53,1.16
460.26,1.86
460.98,2.90
461.70,3.76
462.42,4.06
463.15,3.81
463.87,3.30
464.59,2.99
465.31,3.28
466.04,3.83
466.76,4.11
467.48,4.63
468.20,5.28
468.93,5.93
469.65,6.92
470.37,6.23
471.09,4.32
471.82,2.63
472.54,2.07
473.26,2.61
473.99,3.50
474.71,3.89
475.43,3.55
476.15,3.00
476.88,2.87
477.60,3.02
478.32,2.47
479.04,1.12
479.77,0.07
480.49,-0.09
481.21,-0.06
481.93,-0.11
482.66,-0.17
483.38,0.21
484.10,1.14
484.82,1.73
485.55,2.19
486.27,3.54
486.99,5.15
487.72,5.51
488.44,4.88
489.16,4.54
489.88,4.34
490.61,3.18
491.33,1.40
492.05,0.45
492.77,1.04
493.50,2.91
494.22,5.32
494.94,6.81
495.66,6.00
496.39,4.69
497.11,3.38
497.83,1.35
498.55,1.37
499.28,2.11
500.00,1.85
501.00,0.97
502.01,0.81
503.02,1.54
504.03,2.20
505.04,2.00
506.05,1.51
507.06,1.51
508.07,1.43
509.08,0.61
510.09,-0.04
511.10,0.69
512.11,2.45
513.12,3.54
514.13,3.02
515.14,2.43
516.15,1.85
517.16,1.63
518.17,2.62
519.18,3.47
520.19,2.78
521.20,1.08
522.21,-0.02
523.22,-0.29
524.23,-0.52
525.24,-0.81
526.26,-0.68
527.27,-0.32
528.28,-0.32
529.29,-0.50
530.30,-0.42
531.31,-0.43
532.32,-0.96
533.33,-1.24
534.34,-0.74
535.35,-0.23
536.36,1.61
537.37,2.66
538.38,1.79
539.39,-0.39
540.40,-2.28
541.41,-3.03
542.42,-2.82
543.43,-2.29
544.44,-2.25
545.45,-3.00
546.46,-3.76
547.47,-3.91
548.48,-3.97
549.49,-4.39
550.50,-4.64
551.51,-4.43
552.52,-4.13
553.53,-3.66
554.54,-3.28
555.55,-2.91
556.56,-2.47
557.57,-2.70
558.58,-3.05
559.59,-2.64
560.60,-1.19
561.61,0.50
562.62,1.40
563.63,1.29
564.64,0.67
565.65,0.08
566.66,-0.53
567.67,-1.71
568.68,-3.41
569.69,-4.63
570.70,-4.45
571.71,-3.10
572.72,-1.68
573.73,-1.15
574.74,-0.61
575.76,0.33
576.77,0.74
577.78,0.37
578.79,0.07
579.80,0.42
580.81,0.81
581.82,0.69
582.83,0.35
583.84,-0.08
584.85,-1.14
585.86,-2.39
586.87,-2.43
587.88,-1.32
588.89,-0.49
589.90,-0.49
590.91,-0.69
591.92,-0.67
592.93,-0.59
593.94,-0.69
594.95,-0.79
595.96,-1.55
596.97,-2.37
597.98,-2.13
598.99,-0.96
600.00,-0.08
601.00,0.34
602.18,0.77
603.36,0.77
604.54,0.18
605.71,-0.25
606.89,-0.11
608.07,0.35
609.25,0.63
610.43,0.54
611.61,0.61
612.79,1.24
613.96,1.77
615.14,1.60
616.32,1.35
617.50,1.09
618.68,0.62
619.86,0.39
621.04,0.94
622.21,2.43
623.39,4.04
624.57,4.91
625.75,4.94
626.93,4.80
628.11,5.07
629.29,5.37
630.46,4.78
631.64,3.35
632.82,2.13
634.00,1.48
635.18,1.00
636.36,1.08
637.54,2.24
638.71,2.97
639.89,3.69
641.07,4.32
642.25,4.11
643.43,3.89
644.61,4.27
645.79,4.95
646.96,5.42
648.14,5.83
649.32,6.22
650.50,6.08
651.68,5.34
652.86,4.42
654.04,3.36
655.21,2.21
656.39,1.80
657.57,2.68
658.75,4.12
659.93,5.36
661.11,6.30
662.29,6.58
663.46,6.85
664.64,6.84
665.82,6.42
667.00,6.03
668.18,5.91
669.36,5.77
670.54,5.31
671.71,4.58
672.89,3.64
674.07,2.75
675.25,2.84
676.43,4.34
677.61,6.19
678.79,7.13
679.96,7.21
681.14,7.07
682.32,7.04
683.50,7.50
684.68,8.71
685.86,9.33
687.04,9.96
688.21,10.21
689.39,9.45
690.57,8.36
691.75,7.43
692.93,7.04
694.11,7.32
695.29,7.87
696.46,8.34
697.64,8.61
698.82,8.48
700.00,7.93
701.00,7.36
702.98,6.99
704.96,6.68
706.94,6.56
708.92,7.00
710.90,7.81
712.88,8.17
714.86,8.53
716.84,8.85
718.82,8.43
720.80,7.40
722.78,6.39
724.76,5.72
726.74,5.35
728.72,5.28
730.70,5.53
732.68,5.89
734.66,6.18
736.64,6.76
738.62,7.89
740.60,8.69
742.58,8.20
744.56,6.99
746.54,6.09
748.52,5.45
750.50,4.62
752.48,4.20
754.46,3.78
756.44,3.36
758.42,3.32
760.40,3.28
762.38,3.48
764.36,4.39
766.34,5.46
768.32,5.95
770.30,5.93
772.28,5.78
774.26,5.85
776.24,6.08
778.22,5.60
780.20,3.97
782.18,2.22
784.16,1.74
786.14,2.84
788.12,4.65
790.10,5.32
792.08,5.98
794.06,6.11
796.04,5.08
798.02,3.76
800.00,3.40
801.00,4.37
803.36,5.33
805.71,4.77
808.07,2.99
810.43,1.26
812.79,0.03
815.14,-0.70
817.50,-0.68
819.86,-0.18
822.21,0.12
824.57,0.53
826.93,1.83
829.29,3.24
831.64,3.23
834.00,2.65
836.36,2.08
838.71,1.55
841.07,2.74
843.43,4.82
845.79,5.42
848.14,3.40
850.50,0.47
852.86,-1.54
855.21,-2.52
857.57,-2.75
859.93,-2.06
862.29,-0.59
864.64,0.90
867.00,1.76
869.36,1.98
871.71,1.89
874.07,1.71
876.43,1.44
878.79,1.35
881.14,1.47
883.50,1.59
885.86,1.47
888.21,0.66
890.57,0.07
892.93,0.15
895.29,0.20
897.64,-0.30
900.00,-0.96
901.00,-1.27
904.67,-1.49
908.33,-1.86
912.00,-1.59
915.67,-0.40
919.33,0.76
923.00,1.68
926.67,2.86
930.33,3.44
934.00,2.18
937.67,1.02
941.33,-0.15
945.00,-1.32
948.67,-0.30
952.33,1.63
956.00,2.46
959.67,1.93
963.33,1.08
967.00,-0.11
970.67,-1.82
974.33,-2.62
978.00,-1.54
981.67,-0.24
985.33,-0.58
989.00,-1.96
992.67,-2.63
996.33,-2.41
1000.00,-2.44
1001.00,-2.97
1006.10,-3.29
1011.21,-3.02
1016.31,-2.76
1021.41,-1.38
1026.51,-0.31
1031.62,-0.17
1036.72,0.37
1041.82,1.62
1046.92,1.40
1052.03,-1.22
1057.13,-4.12
1062.23,-5.09
1067.33,-3.85
1072.44,-1.60
1077.54,0.06
1082.64,0.19
1087.74,-0.90
1092.85,-2.13
1097.95,-2.69
1103.05,-2.51
1108.15,-1.78
1113.26,-1.29
1118.36,-0.80
1123.46,-0.55
1128.56,-1.45
1133.67,-2.29
1138.77,-1.99
1143.87,-1.16
1148.97,-0.46
1154.08,0.62
1159.18,2.13
1164.28,2.80
1169.38,2.20
1174.49,1.51
1179.59,1.20
1184.69,0.38
1189.79,-0.98
1194.90,-1.88
1200.00,-1.88
1201.00,-1.12
1210.06,-0.54
1219.12,0.04
1228.18,1.18
1237.24,1.93
1246.30,1.90
1255.36,1.13
1264.42,0.43
1273.48,0.30
1282.55,0.18
1291.61,-0.50
1300.67,-1.48
1309.73,-1.98
1318.79,-1.51
1327.85,-0.52
1336.91,0.41
1345.97,1.00
1355.03,0.57
1364.09,-0.79
1373.15,-1.27
1382.21,-0.03
1391.27,0.70
1400.33,1.43
1409.39,1.57
1418.45,0.92
1427.52,0.90
1436.58,1.50
1445.64,1.71
1454.70,1.52
1463.76,1.43
1472.82,1.37
1481.88,1.35
1490.94,1.43
1500.00,1.21
1501.00,0.76
1510.24,1.05
1519.48,2.22
1528.72,3.07
1537.96,2.73
1547.20,1.56
1556.44,0.90
1565.69,0.25
1574.93,-0.67
1584.17,-0.81
1593.41,-0.46
1602.65,-0.28
1611.89,-0.09
1621.13,0.77
1630.37,2.27
1639.61,3.84
1648.85,4.81
1658.09,4.66
1667.33,3.46
1676.57,1.88
1685.81,0.78
1695.06,0.76
1704.30,1.50
1713.54,2.01
1722.78,2.13
1732.02,2.53
1741.26,2.91
1750.50,3.30
1759.74,3.75
1768.98,3.27
1778.22,2.18
1787.46,1.53
1796.70,1.89
1805.94,3.00
1815.19,4.21
1824.43,4.81
1833.67,4.48
1842.91,3.52
1852.15,2.49
1861.39,1.80
1870.63,1.48
1879.87,1.55
1889.11,2.17
1898.35,3.21
1907.59,4.18
1916.83,4.82
1926.07,5.01
1935.31,5.20
1944.56,5.14
1953.80,4.35
1963.04,3.37
1972.28,2.90
1981.52,2.56
1990.76,1.99
2000.00,1.93
2001.00,3.01
2018.22,4.59
2035.45,5.59
2052.67,5.86
2069.90,5.76
2087.12,5.07
2104.34,3.94
2121.57,3.45
2138.79,3.77
2156.02,3.73
2173.24,3.63
2190.47,3.53
2207.69,4.45
2224.91,5.94
2242.14,6.22
2259.36,5.23
2276.59,4.54
2293.81,5.08
2311.03,6.08
2328.26,6.60
2345.48,6.70
2362.71,6.54
2379.93,5.70
2397.16,4.39
2414.38,3.90
2431.60,4.62
2448.83,5.39
2466.05,5.38
2483.28,5.07
2500.50,4.96
2517.72,4.87
2534.95,4.78
2552.17,4.14
2569.40,3.24
2586.62,2.82
2603.84,3.54
2621.07,5.09
2638.29,6.25
2655.52,6.02
2672.74,4.80
2689.97,4.07
2707.19,4.39
2724.41,4.94
2741.64,5.31
2758.86,5.94
2776.09,6.51
2793.31,6.00
2810.53,4.52
2827.76,3.38
2844.98,3.41
2862.21,3.44
2879.43,4.29
2896.66,4.95
2913.88,5.36
2931.10,6.19
2948.33,7.26
2965.55,7.54
2982.78,6.47
3000.00,4.72
3001.00,4.07
3025.99,5.46
3050.98,7.70
3075.98,8.92
3100.97,8.52
3125.96,7.15
3150.95,5.95
3175.94,5.70
3200.93,6.19
3225.93,6.75
3250.92,6.93
3275.91,7.12
3300.90,7.24
3325.89,7.29
3350.88,7.61
3375.87,8.07
3400.87,7.83
3425.86,6.34
3450.85,4.33
3475.84,3.45
3500.83,4.29
3525.82,5.55
3550.82,5.98
3575.81,5.51
3600.80,4.74
3625.79,4.27
3650.78,4.60
3675.77,5.73
3700.77,7.17
3725.76,8.46
3750.75,8.75
3775.74,9.05
3800.73,8.27
3825.73,6.46
3850.72,5.02
3875.71,4.67
3900.70,5.38
3925.69,6.48
3950.68,6.62
3975.68,5.73
4000.67,5.52
4025.66,6.30
4050.65,6.45
4075.64,5.62
4100.63,5.20
4125.62,5.47
4150.62,5.73
4175.61,6.21
4200.60,7.15
4225.59,7.41
4250.58,7.66
4275.58,7.32
4300.57,6.73
4325.56,6.29
4350.55,6.09
4375.54,6.14
4400.53,6.13
4425.52,5.54
4450.52,4.51
4475.51,3.86
4500.50,3.64
4525.49,3.21
4550.48,2.76
4575.48,3.00
4600.47,3.73
4625.46,4.35
4650.45,4.74
4675.44,5.18
4700.43,5.92
4725.42,6.40
4750.42,6.88
4775.41,7.55
4800.40,7.88
4825.39,8.50
4850.38,9.28
4875.37,8.95
4900.37,7.11
4925.36,5.29
4950.35,4.68
4975.34,4.61
5000.33,4.08
5025.33,3.19
5050.32,2.84
5075.31,3.72
5100.30,5.23
5125.29,5.99
5150.28,5.38
5175.27,4.10
5200.27,3.43
5225.26,3.75
5250.25,4.06
5275.24,5.44
5300.23,6.73
5325.23,7.78
5350.22,8.70
5375.21,9.31
5400.20,9.54
5425.19,9.27
5450.18,8.04
5475.17,5.95
5500.17,4.19
5525.16,3.63
5550.15,3.79
5575.14,3.73
5600.13,3.70
5625.12,5.19
5650.12,10.21
5675.11,22.48
5700.10,36.00
5725.09,49.51
5750.08,104.20
5775.08,204.94
5800.07,371.55
5825.06,617.34
5850.05,940.50
5875.04,1318.67
5900.03,1709.91
5925.02,2058.49
5950.02,2305.17
5975.01,2404.90
6000.00,2343.58
6024.79,2140.22
6049.64,1836.79
6074.48,1484.56
6099.32,1131.67
6124.16,815.03
6149.01,557.10
6173.85,365.01
6198.69,298.99
6223.53,232.96
6248.38,148.28
6273.22,97.17
6298.06,67.85
6322.90,51.49
6347.75,42.34
6372.59,37.03
6397.43,33.61
6422.27,31.04
6447.12,28.68
6471.96,26.06
6496.80,23.45
6521.65,21.74
6546.49,21.18
6571.33,21.49
6596.17,22.45
6621.02,23.45
6645.86,23.77
6670.70,23.45
6695.54,23.13
6720.39,21.51
6745.23,19.56
6770.07,18.64
6794.91,18.85
6819.76,18.65
6844.60,17.22
6869.44,15.17
6894.28,13.24
6919.13,11.88
6943.97,11.12
6968.81,9.98
6993.65,8.19
7018.50,7.14
7043.34,7.41
7068.18,7.51
7093.02,6.42
7117.87,5.13
7142.71,4.86
7167.55,5.14
7192.39,5.41
7217.24,5.51
7242.08,4.39
7266.92,3.00
7291.77,2.90
7316.61,3.96
7341.45,4.84
7366.29,4.87
7391.14,4.27
7415.98,3.24
7440.82,1.99
7465.66,0.89
7490.51,0.28
7515.35,0.33
7540.19,0.87
7565.03,1.71
7589.88,2.86
7614.72,3.88
7639.56,3.97
7664.40,3.41
7689.25,2.85
7714.09,1.09
7738.93,-0.41
7763.77,-1.09
7788.62,-0.81
7813.46,0.30
7838.30,1.51
7863.14,1.90
7887.99,1.50
7912.83,1.19
7937.67,1.43
7962.51,1.46
7987.36,0.50
8012.20,-0.64
8037.04,-0.45
8061.89,0.82
8086.73,1.56
8111.57,1.33
8136.41,1.29
8161.26,1.25
8186.10,1.96
8210.94,2.96
8235.78,3.97
8260.63,4.64
8285.47,4.19
8310.31,2.79
8335.15,1.67
8360.00,1.39
8384.84,1.42
8409.68,1.22
8434.52,0.95
8459.37,0.87
8484.21,0.75
8509.05,0.13
8533.89,-1.04
8558.74,-2.12
8583.58,-2.43
8608.42,-2.00
8633.26,-1.52
8658.11,-1.04
8682.95,0.33
8707.79,1.70
8732.63,2.61
8757.48,2.97
8782.32,2.86
8807.16,2.43
8832.00,1.79
8856.85,1.28
8881.69,1.19
8906.53,1.07
8931.37,0.51
8956.22,0.01
8981.06,-0.11
9005.90,-0.23
9030.75,-0.39
9055.59,-0.09
9080.43,0.78
9105.27,1.55
9130.12,1.45
9154.96,1.35
9179.80,-0.03
9204.64,-1.88
9229.49,-3.32
9254.33,-3.72
9279.17,-2.93
9304.01,-1.48
9328.86,-0.07
9353.70,1.06
9378.54,1.78
9403.38,1.93
9428.23,1.80
9453.07,1.87
9477.91,2.03
9502.75,1.86
9527.60,1.24
9552.44,0.52
9577.28,0.12
9602.12,0.02
9626.97,-0.08
9651.81,-0.53
9676.65,-1.29
9701.50,-1.85
9726.34,-1.60
9751.18,-0.55
9776.02,0.50
9800.87,1.13
9825.71,1.76
9850.55,2.22
9875.39,1.62
9900.24,0.35
9925.08,-0.15
9949.92,0.42
9974.76,0.95
9999.61,0.83
10024.45,0.41
10049.29,0.21
10074.13,0.18
10098.98,-0.03
10123.82,-0.24
10148.66,-0.76
10173.50,-0.23
10198.35,1.09
10223.19,1.64
10248.03,1.14
10272.87,0.58
10297.72,0.69
10322.56,1.41
10347.40,2.00
10372.25,1.48
10397.09,-0.06
10421.93,-0.95
10446.77,-0.12
10471.62,0.95
10496.46,0.59
10521.30,-0.51
10546.14,-0.95
10570.99,-0.81
10595.83,-0.68
10620.67,-0.50
10645.51,-0.91
10670.36,-1.71
10695.20,-1.91
10720.04,-0.79
10744.88,0.36
10769.73,-0.37
10794.57,-2.32
10819.41,-3.15
10844.25,-2.36
10869.10,-1.78
10893.94,-2.75
10918.78,-4.31
10943.62,-4.55
10968.47,-3.30
10993.31,-2.09
11018.15,-1.86
11043.00,-2.40
11067.84,-2.85
11092.68,-3.30
11117.52,-3.72
11142.37,-3.22
11167.21,-2.70
11192.05,-2.84
11216.89,-3.24
11241.74,-3.46
11266.58,-3.26
11291.42,-2.86
11316.26,-2.74
11341.11,-2.79
11365.95,-2.24
11390.79,-0.95
11415.63,0.52
11440.48,1.88
11465.32,2.68
11490.16,1.73
11515.00,-0.86
11539.85,-2.45
11564.69,-1.88
11589.53,-1.30
11614.37,0.62
11639.22,0.80
11664.06,-0.17
11688.90,-0.12
11713.74,1.13
11738.59,2.22
11763.43,2.67
11788.27,2.63
11813.12,1.98
11837.96,1.32
11862.80,1.31
11887.64,1.44
11912.49,0.99
11937.33,0.05
11962.17,-0.52
11987.01,-0.47
12011.86,-0.61
12036.70,-0.76
12061.54,-0.92
12086.38,-0.37
12111.23,1.09
12136.07,2.48
12160.91,2.96
12185.75,2.08
12210.60,0.21
12235.44,-1.53
12260.28,-2.28
12285.12,-2.29
12309.97,-2.35
12334.81,-2.58
12359.65,-2.36
12384.49,-1.03
12409.34,0.97
12434.18,1.88
12459.02,1.10
12483.86,0.58
12508.71,1.38
12533.55,1.64
12558.39,1.90
12583.24,1.20
12608.08,0.37
12632.92,0.15
12657.76,0.49
12682.61,1.22
12707.45,1.79
12732.29,1.81
12757.13,1.61
12781.98,1.30
12806.82,0.72
12831.66,0.20
12856.50,0.42
12881.35,1.77
12906.19,3.71
12931.03,5.02
12955.87,4.92
12980.72,3.86
13005.56,3.29
13030.40,2.72
13055.24,1.75
13080.09,1.15
13104.93,1.20
13129.77,1.39
13154.61,0.53
13179.46,-1.59
13204.30,-3.51
13229.14,-3.80
13253.98,-2.67
13278.83,-1.25
13303.67,-0.39
13328.51,-0.48
13353.35,-1.50
13378.20,-3.02
13403.04,-4.29
13427.88,-4.51
13452.73,-3.37
13477.57,-1.74
13502.41,-1.21
13527.25,-0.69
13552.10,-0.40
13576.94,-0.49
13601.78,-0.55
13626.62,-0.60
13651.47,-0.92
13676.31,-1.42
13701.15,-1.60
13725.99,-1.24
13750.84,-0.63
13775.68,-0.33
13800.52,-0.45
13825.36,-0.46
13850.21,-0.04
13875.05,0.56
13899.89,0.89
13924.73,0.77
13949.58,0.70
13974.42,1.28
13999.26,1.54
14024.10,1.81
14048.95,1.22
14073.79,0.32
14098.63,0.49
14123.47,1.01
14148.32,0.45
14173.16,-0.72
14198.00,-1.13
14222.85,-0.38
14247.69,1.03
14272.53,2.17
14297.37,2.46
14322.22,2.04
14347.06,1.25
14371.90,0.55
14396.74,0.80
14421.59,2.11
14446.43,3.21
14471.27,3.06
14496.11,2.92
14520.96,1.53
14545.80,0.25
14570.64,-0.26
14595.48,-0.37
14620.33,-0.53
14645.17,-0.66
14670.01,-0.28
14694.85,0.83
14719.70,2.07
14744.54,2.31
14769.38,1.39
14794.22,0.44
14819.07,0.30
14843.91,0.43
14868.75,-0.27
14893.59,-1.73
14918.44,-2.70
14943.28,-2.65
14968.12,-2.58
14992.97,-2.52
15017.81,-2.67
15042.65,-1.95
15067.49,-0.20
15092.34,0.82
15117.18,0.43
15142.02,-0.14
15166.86,-0.26
15191.71,-0.31
15216.55,-0.43
15241.39,-0.41
15266.23,-0.05
15291.08,0.35
15315.92,0.01
15340.76,-0.93
15365.60,-1.19
15390.45,-0.33
15415.29,0.66
15440.13,1.05
15464.97,1.12
15489.82,1.18
15514.66,1.14
15539.50,0.58
15564.34,-0.18
15589.19,-0.70
15614.03,-1.02
15638.87,-1.05
15663.71,-0.73
15688.56,-0.51
15713.40,-0.57
15738.24,-0.55
15763.08,-0.20
15787.93,0.02
15812.77,-0.29
15837.61,-0.49
15862.46,-0.00
15887.30,0.41
15912.14,-0.29
15936.98,-1.01
15961.83,-1.73
15986.67,-2.54
16011.51,-2.36
16036.35,-2.09
16061.20,-2.18
16086.04,-2.31
16110.88,-2.32
16135.72,-2.20
16160.57,-1.47
16185.41,0.30
16210.25,2.24
16235.09,2.65
16259.94,0.89
16284.78,-1.89
16309.62,-3.87
16334.46,-4.13
16359.31,-3.55
16384.15,-3.58
16408.99,-3.93
16433.84,-3.67
16458.68,-3.40
16483.52,-2.21
16508.36,-1.21
16533.21,-0.19
16558.05,1.02
16582.89,1.77
16607.73,1.79
16632.58,1.42
16657.42,0.88
16682.26,0.29
16707.10,-0.07
16731.95,0.06
16756.79,0.61
16781.63,1.16
16806.47,1.30
16831.32,1.13
16856.16,1.14
16881.00,1.47
16905.84,1.69
16930.69,1.91
16955.53,2.46
16980.37,2.82
17005.21,2.04
17030.06,0.09
17054.90,-1.64
17079.74,-2.03
17104.58,-0.80
17129.43,1.47
17154.27,2.95
17179.11,2.32
17203.96,0.88
17228.80,0.82
17253.64,2.04
17278.48,2.74
17303.33,2.14
17328.17,1.40
17353.01,1.57
17377.85,2.20
17402.70,2.31
17427.54,2.42
17452.38,2.41
17477.22,2.71
17502.07,3.17
17526.91,3.16
17551.75,2.47
17576.59,1.58
17601.44,0.96
17626.28,0.56
17651.12,0.17
17675.96,-0.12
17700.81,0.04
17725.65,0.92
17750.49,1.93
17775.33,2.05
17800.18,1.29
17825.02,0.52
17849.86,0.04
17874.71,-0.25
17899.55,-0.28
17924.39,-0.31
17949.23,-0.35
17974.07,-0.43
17998.92,-0.11
18023.76,0.44
18048.60,0.47
18073.45,-0.18
18098.29,-0.68
18123.13,0.15
18147.97,2.26
18172.82,3.96
18197.66,3.87
18222.50,2.49
18247.34,1.06
18272.19,0.00
18297.03,0.70
18321.87,0.00
18346.71,0.42
18371.56,1.51
18396.40,2.60
18421.24,4.86
18446.08,5.11
18470.93,3.90
18495.77,3.30
18520.61,3.66
18545.46,3.78
