Size (bp),Intensity
0.58,1344.36
1.00,1147.73
2.00,778.88
2.42,430.74
2.84,208.30
3.26,103.60
3.68,84.07
4.10,64.53
4.52,51.17
4.94,46.08
5.36,43.97
5.79,42.93
6.21,41.62
6.63,38.98
7.05,34.44
7.47,28.40
7.89,21.94
8.31,16.23
8.73,11.89
9.15,8.57
9.57,7.24
9.99,5.91
10.41,4.06
10.83,2.68
11.25,1.45
11.67,0.93
12.09,0.98
12.52,0.40
12.94,-1.27
13.36,-3.24
13.78,-4.77
14.20,-5.69
14.62,-6.11
15.04,-5.18
15.46,-3.00
15.88,-0.83
16.30,8.49
16.72,21.03
17.14,30.90
17.56,31.82
17.98,23.12
18.40,10.90
18.82,1.98
19.24,-2.06
19.67,-3.78
20.09,-4.71
20.51,-4.56
20.93,-3.76
21.35,-3.55
21.77,-3.34
22.19,-3.83
22.61,-5.26
23.03,-7.18
23.45,-8.81
23.87,-9.60
24.29,-9.45
24.71,-8.86
25.13,-8.37
25.55,-8.03
25.97,-8.12
26.39,-9.09
26.82,-10.38
27.24,-10.47
27.66,-10.56
28.08,-9.37
28.50,-8.01
28.92,-7.24
29.34,-6.72
29.76,-6.29
30.18,-6.23
30.60,-6.64
31.02,-7.29
31.44,-7.95
31.86,-8.68
32.28,-9.44
32.70,-9.80
33.12,-9.64
33.55,-9.48
33.97,-8.74
34.39,-8.06
34.81,-7.79
35.23,-8.01
35.65,-8.49
36.07,-8.78
36.49,-8.71
36.91,-8.57
37.33,-8.56
37.75,-8.43
38.17,-8.27
38.59,-8.51
39.01,-8.68
39.43,-8.86
39.85,-8.66
40.27,-8.12
40.70,-7.80
41.12,-7.58
41.54,-7.10
41.96,-6.47
42.38,-5.96
42.80,-5.73
43.22,-5.53
43.64,-4.79
44.06,-3.56
44.48,-2.87
44.90,-3.02
45.32,-3.17
45.74,-3.59
46.16,-3.61
46.58,-3.93
47.00,-4.51
47.42,-4.33
47.85,-3.25
48.27,-2.13
48.69,-1.48
49.11,-1.05
49.53,-0.51
49.95,0.23
50.37,1.19
50.79,2.55
51.21,3.82
51.63,5.09
52.05,9.08
52.47,12.26
52.89,12.10
53.31,9.67
53.73,7.94
54.15,7.75
54.58,8.08
55.00,8.31
55.42,7.99
55.84,6.69
56.26,4.97
56.68,3.83
57.10,3.62
57.52,3.41
57.94,3.55
58.36,4.07
58.78,4.58
59.20,4.34
59.62,2.86
60.04,0.92
60.46,-0.07
60.88,0.06
61.30,0.49
61.73,0.97
62.15,1.55
62.57,1.94
62.99,1.89
63.41,1.85
63.83,1.45
64.25,1.15
64.67,0.88
65.09,-0.13
65.51,-2.01
65.93,-3.60
66.35,-4.03
66.77,-3.90
67.19,-3.98
67.61,-4.07
68.03,-3.53
68.45,-2.35
68.88,-1.92
69.30,-1.49
69.72,-2.08
70.14,-3.76
70.56,-4.95
70.98,-4.82
71.40,-3.92
71.82,-3.16
72.24,-2.86
72.66,-2.86
73.08,-3.14
73.50,-3.71
73.92,-4.35
74.34,-4.52
74.76,-4.22
75.18,-3.92
75.61,-3.44
76.03,-4.17
76.45,-5.34
76.87,-5.37
77.29,-4.39
77.71,-3.66
78.13,-3.53
78.55,-3.97
78.97,-5.00
79.39,-5.61
79.81,-4.76
80.23,-3.14
80.65,-2.73
81.07,-2.32
81.49,-2.53
81.91,-2.82
82.33,-2.69
82.76,-2.43
83.18,-2.05
83.60,-1.07
84.02,0.05
84.44,0.07
84.86,-1.00
85.28,-1.79
85.70,-1.42
86.12,-0.39
86.54,-0.06
86.96,0.27
87.38,0.09
87.80,-0.84
88.22,-2.00
88.64,-2.49
89.06,-2.03
89.48,-1.60
89.91,-1.97
90.33,-2.48
90.75,-2.25
91.17,-1.58
91.59,-1.40
92.01,-1.99
92.43,-2.38
92.85,-2.76
93.27,-3.11
93.69,-2.96
94.11,-2.41
94.53,-1.51
94.95,-0.56
95.37,0.07
95.79,0.20
96.21,-0.32
96.64,-1.36
97.06,-2.12
97.48,-1.94
97.90,-1.40
98.32,-1.41
98.74,-1.43
99.16,-1.61
99.58,-1.03
100.00,-0.17
101.00,0.02
101.52,-0.31
102.04,-0.63
102.56,-0.70
103.08,-0.79
103.61,-1.36
104.13,-2.02
104.65,-1.90
105.17,-1.19
105.69,-0.91
106.21,-0.62
106.73,-0.16
107.25,0.50
107.77,1.34
108.29,2.07
108.82,1.95
109.34,0.66
109.86,-0.50
110.38,-0.29
110.90,0.70
111.42,1.73
111.94,2.91
112.46,3.73
112.98,3.62
113.51,3.50
114.03,2.82
114.55,2.19
115.07,1.23
115.59,0.35
116.11,0.40
116.63,0.96
117.15,1.33
117.67,2.13
118.19,3.80
118.72,5.15
119.24,5.11
119.76,4.06
120.28,3.51
120.80,2.97
121.32,2.64
121.84,3.19
122.36,4.25
122.88,5.83
123.41,8.06
123.93,10.01
124.45,10.50
124.97,9.48
125.49,7.87
126.01,6.93
126.53,7.16
127.05,7.42
127.57,6.99
128.09,6.56
128.62,5.74
129.14,6.66
129.66,8.96
130.18,11.02
130.70,11.59
131.22,10.77
131.74,9.94
132.26,10.01
132.78,10.47
133.31,10.65
133.83,10.83
134.35,11.73
134.87,12.50
135.39,13.27
135.91,14.59
136.43,15.28
136.95,15.40
137.47,14.91
137.99,14.32
138.52,14.71
139.04,16.34
139.56,18.15
140.08,18.84
140.60,18.35
141.12,17.81
141.64,18.45
142.16,19.38
142.68,20.31
143.21,21.93
143.73,21.61
144.25,19.64
144.77,18.16
145.29,18.56
145.81,20.13
146.33,21.65
146.85,23.04
147.37,24.86
147.89,26.85
148.42,28.12
148.94,28.79
149.46,29.58
149.98,29.96
150.50,30.34
151.02,30.61
151.54,30.59
152.06,30.30
152.58,29.70
153.11,29.69
153.63,30.70
154.15,31.55
154.67,32.03
155.19,33.43
155.71,35.65
156.23,37.32
156.75,38.20
157.27,38.64
157.79,39.07
158.32,39.94
158.84,40.17
159.36,39.94
159.88,40.42
160.40,42.02
160.92,43.60
161.44,44.10
161.96,43.81
162.48,43.65
163.01,44.12
163.53,45.10
164.05,46.23
164.57,46.93
165.09,47.62
165.61,49.08
166.13,49.76
166.65,49.55
167.17,49.48
167.69,50.27
168.22,51.81
168.74,53.50
169.26,54.57
169.78,54.82
170.30,54.75
170.82,55.12
171.34,56.62
171.86,57.84
172.38,59.05
172.91,61.42
173.43,63.46
173.95,65.28
174.47,66.85
174.99,68.97
175.51,72.42
176.03,76.46
176.55,79.98
177.07,82.82
177.59,85.20
178.12,87.51
178.64,90.76
179.16,93.35
179.68,95.94
180.20,102.50
180.72,109.15
181.24,115.75
181.76,122.84
182.28,130.25
182.81,137.28
183.33,143.61
183.85,150.26
184.37,158.97
184.89,170.29
185.41,183.13
185.93,196.61
186.45,203.56
186.97,210.51
187.49,224.00
188.02,236.55
188.54,248.91
189.06,261.63
189.58,274.84
190.10,288.60
190.62,302.13
191.14,314.06
191.66,324.07
192.18,333.59
192.71,344.43
193.23,356.43
193.75,362.09
194.27,367.74
194.79,377.39
195.31,386.62
195.83,397.39
196.35,410.29
196.87,423.97
197.39,436.98
197.92,449.83
198.44,464.53
198.96,482.36
199.48,502.96
200.00,525.02
201.00,547.31
201.59,558.32
202.17,569.33
202.76,591.79
203.34,616.26
203.93,643.25
204.51,671.48
205.10,699.70
205.69,727.85
206.27,756.34
206.86,786.35
207.44,819.53
208.03,855.65
208.62,891.78
209.20,925.21
209.79,940.67
210.37,956.13
210.96,986.61
211.54,1017.74
212.13,1048.64
212.72,1077.99
213.30,1105.73
213.89,1132.87
214.47,1160.08
215.06,1187.35
215.64,1215.80
216.23,1248.31
216.82,1286.22
217.40,1327.59
217.99,1348.81
218.57,1370.04
219.16,1412.62
219.75,1454.99
220.33,1497.03
220.92,1539.16
221.50,1581.72
222.09,1624.19
222.67,1665.87
223.26,1706.15
223.85,1743.84
224.43,1778.62
225.02,1811.99
225.60,1844.53
226.19,1859.87
226.78,1875.21
227.36,1903.70
227.95,1930.04
228.53,1954.86
229.12,1981.02
229.70,2011.17
230.29,2044.93
230.88,2080.59
231.46,2118.24
232.05,2160.23
232.63,2207.68
233.22,2257.94
233.80,2308.12
234.39,2333.01
234.98,2357.89
235.56,2407.10
236.15,2454.93
236.73,2501.32
237.32,2545.52
237.91,2585.15
238.49,2619.49
239.08,2650.45
239.66,2680.79
240.25,2714.52
240.83,2756.62
241.42,2809.17
242.01,2869.95
242.59,2902.42
243.18,2934.89
243.76,2998.82
244.35,3055.63
244.93,3101.84
245.52,3138.30
246.11,3166.95
246.69,3188.33
247.28,3202.28
247.86,3209.71
248.45,3213.44
249.04,3216.20
249.62,3219.42
250.21,3224.99
250.79,3229.76
251.38,3234.53
251.96,3246.32
252.55,3255.19
253.14,3255.95
253.72,3248.18
254.31,3236.22
254.89,3222.76
255.48,3207.22
256.07,3190.93
256.65,3178.20
257.24,3172.93
257.82,3176.25
258.41,3186.07
258.99,3192.36
259.58,3198.64
260.17,3210.01
260.75,3215.86
261.34,3212.60
261.92,3199.02
262.51,3175.79
263.09,3144.40
263.68,3108.22
264.27,3074.04
264.85,3048.28
265.44,3032.16
266.02,3023.78
266.61,3022.26
267.20,3027.81
267.78,3033.54
268.37,3039.26
268.95,3051.83
269.54,3059.51
270.12,3060.05
270.71,3054.34
271.30,3042.44
271.88,3025.06
272.47,3006.19
273.05,2989.33
273.64,2974.08
274.22,2959.47
274.81,2946.10
275.40,2934.33
275.98,2929.03
276.57,2923.73
277.15,2914.89
277.74,2908.99
278.33,2904.11
278.91,2895.62
279.50,2881.71
280.08,2863.79
280.67,2843.46
281.25,2823.01
281.84,2804.62
282.43,2787.97
283.01,2773.18
283.60,2763.33
284.18,2761.98
284.77,2760.63
285.36,2763.59
285.94,2770.10
286.53,2779.66
287.11,2791.06
287.70,2800.21
288.28,2801.07
288.87,2789.18
289.46,2765.14
290.04,2734.65
290.63,2704.95
291.21,2681.29
291.80,2664.86
292.38,2659.43
292.97,2653.99
293.56,2647.33
294.14,2644.13
294.73,2642.77
295.31,2641.32
295.90,2638.14
296.49,2631.17
297.07,2619.55
297.66,2605.45
298.24,2592.18
298.83,2582.15
299.41,2576.69
300.00,2575.11
301.00,2574.86
301.70,2574.62
302.39,2572.87
303.09,2570.09
303.79,2568.36
304.49,2569.90
305.18,2575.94
305.88,2585.43
306.58,2594.19
307.27,2598.42
307.97,2598.94
308.67,2598.54
309.37,2597.69
310.06,2596.78
310.76,2597.40
311.46,2598.02
312.15,2602.06
312.85,2607.29
313.55,2611.63
314.25,2610.79
314.94,2599.53
315.64,2576.51
316.34,2542.46
317.04,2496.81
317.73,2441.66
318.43,2383.84
319.13,2330.19
319.82,2284.23
320.52,2265.13
321.22,2246.04
321.92,2212.45
322.61,2179.41
323.31,2146.52
324.01,2117.43
324.70,2094.34
325.40,2075.10
326.10,2056.96
326.80,2039.32
327.49,2021.97
328.19,2003.92
328.89,1985.29
329.58,1968.08
330.28,1961.00
330.98,1953.93
331.68,1942.19
332.37,1931.10
333.07,1920.27
333.77,1910.27
334.46,1900.66
335.16,1890.79
335.86,1881.72
336.56,1874.99
337.25,1871.07
337.95,1869.23
338.65,1868.58
339.35,1869.03
340.04,1869.79
340.74,1870.55
341.44,1872.39
342.13,1873.58
342.83,1873.01
343.53,1869.34
344.23,1861.52
344.92,1849.46
345.62,1835.09
346.32,1820.92
347.01,1806.58
347.71,1790.03
348.41,1771.69
349.11,1755.46
349.80,1750.69
350.50,1745.91
351.20,1744.97
351.89,1751.35
352.59,1761.95
353.29,1772.66
353.99,1779.30
354.68,1779.26
355.38,1772.66
356.08,1761.57
356.77,1748.60
357.47,1735.92
358.17,1723.58
358.87,1709.23
359.56,1700.39
360.26,1691.55
360.96,1672.07
361.65,1653.22
362.35,1636.76
363.05,1623.35
363.75,1612.14
364.44,1601.15
365.14,1588.98
365.84,1576.54
366.54,1565.85
367.23,1557.48
367.93,1550.16
368.63,1542.21
369.32,1537.62
370.02,1533.02
370.72,1522.90
371.42,1511.49
372.11,1497.76
372.81,1482.15
373.51,1466.69
374.20,1453.60
374.90,1444.56
375.60,1440.30
376.30,1440.31
376.99,1442.92
377.69,1445.91
378.39,1447.70
379.08,1447.73
379.78,1447.75
380.48,1445.78
381.18,1441.66
381.87,1436.34
382.57,1430.72
383.27,1424.95
383.96,1419.79
384.66,1415.53
385.36,1410.38
386.06,1402.72
386.75,1392.62
387.45,1380.52
388.15,1366.92
388.85,1360.05
389.54,1353.19
390.24,1341.20
390.94,1331.93
391.63,1325.12
392.33,1320.66
393.03,1319.25
393.73,1321.43
394.42,1326.81
395.12,1334.12
395.82,1341.97
396.51,1348.99
397.21,1352.95
397.91,1352.65
398.61,1351.40
399.30,1350.14
400.00,1347.85
401.00,1345.52
401.72,1342.71
402.45,1340.72
403.17,1339.34
403.89,1336.08
404.61,1329.69
405.34,1320.83
406.06,1310.06
406.78,1296.52
407.50,1278.36
408.23,1254.87
408.95,1227.91
409.67,1214.24
410.39,1200.57
411.12,1175.85
411.84,1155.57
412.56,1139.05
413.28,1124.22
414.01,1110.05
414.73,1095.89
415.45,1080.27
416.18,1062.72
416.90,1044.48
417.62,1026.42
418.34,1008.82
419.07,992.99
419.79,986.60
420.51,980.21
421.23,970.38
421.96,963.14
422.68,958.35
423.40,955.17
424.12,952.61
424.85,950.47
425.57,948.30
426.29,944.81
427.01,939.49
427.74,933.81
428.46,929.77
429.18,928.03
429.91,927.86
430.63,927.68
431.35,927.52
432.07,926.76
432.80,925.28
433.52,924.06
434.24,923.68
434.96,923.17
435.69,922.08
436.41,921.15
437.13,919.62
437.85,914.84
438.58,905.93
439.30,895.16
440.02,890.05
440.74,884.95
441.47,875.52
442.19,866.01
442.91,856.49
443.64,847.98
444.36,841.22
445.08,836.95
445.80,836.10
446.53,838.03
447.25,840.63
447.97,842.19
448.69,841.26
449.42,836.89
450.14,833.39
450.86,829.88
451.58,821.64
452.31,812.54
453.03,802.67
453.75,792.96
454.47,784.64
455.20,777.37
455.92,768.99
456.64,758.61
457.36,747.65
458.09,736.90
458.81,725.87
459.53,714.76
460.26,709.80
460.98,704.84
461.70,697.22
462.42,691.87
463.15,686.91
463.87,680.38
464.59,672.63
465.31,665.35
466.04,659.41
466.76,654.32
467.48,649.25
468.20,644.43
468.93,640.97
469.65,638.42
470.37,636.62
471.09,634.82
471.82,629.72
472.54,624.62
473.26,620.81
473.99,618.35
474.71,615.94
475.43,611.46
476.15,604.13
476.88,595.56
477.60,587.54
478.32,580.06
479.04,572.71
479.77,565.83
480.49,562.74
481.21,559.66
481.93,554.17
482.66,549.44
483.38,545.28
484.10,541.40
484.82,538.50
485.55,537.65
486.27,538.64
486.99,540.31
487.72,541.71
488.44,541.86
489.16,539.36
489.88,533.37
490.61,528.73
491.33,524.08
492.05,512.56
492.77,500.94
493.50,491.95
494.22,486.98
494.94,485.00
495.66,483.49
496.39,480.22
497.11,474.96
497.83,469.44
498.55,464.96
499.28,460.93
500.00,456.17
501.00,453.49
502.01,450.82
503.02,445.73
504.03,441.37
505.04,438.34
506.05,437.07
507.06,435.91
508.07,432.65
509.08,427.60
510.09,422.29
511.10,417.11
512.11,411.79
513.12,406.02
514.13,399.57
515.14,396.33
516.15,393.08
517.16,387.36
518.17,382.19
519.18,377.36
520.19,373.60
521.20,370.89
522.21,367.51
523.22,362.53
524.23,356.70
525.24,350.49
526.26,344.23
527.27,338.97
528.28,335.17
529.29,333.55
530.30,331.94
531.31,328.43
532.32,324.86
533.33,321.76
534.34,318.80
535.35,315.48
536.36,312.23
537.37,309.58
538.38,307.32
539.39,305.11
540.40,302.99
541.41,301.10
542.42,299.68
543.43,299.35
544.44,299.02
545.45,298.48
546.46,296.90
547.47,294.15
548.48,291.29
549.49,288.94
550.50,286.80
551.51,284.30
552.52,281.06
553.53,277.61
554.54,275.45
555.55,275.35
556.56,276.10
557.57,275.87
558.58,275.63
559.59,272.84
560.60,268.22
561.61,263.03
562.62,258.19
563.63,253.81
564.64,249.69
565.65,245.97
566.66,242.54
567.67,238.86
568.68,234.84
569.69,231.35
570.70,229.54
571.71,229.46
572.72,229.38
573.73,228.73
574.74,225.49
575.76,220.53
576.77,216.44
577.78,214.06
578.79,212.32
579.80,210.73
580.81,210.02
581.82,210.22
582.83,209.85
583.84,207.69
584.85,204.32
585.86,201.47
586.87,200.72
587.88,199.96
588.89,199.11
589.90,197.98
590.91,196.30
591.92,194.18
592.93,191.68
593.94,189.03
594.95,186.98
595.96,185.75
596.97,184.48
597.98,182.59
598.99,180.60
600.00,178.95
601.00,178.23
602.18,177.51
603.36,175.96
604.54,174.17
605.71,172.50
606.89,171.54
608.07,171.21
609.25,170.84
610.43,169.93
611.61,168.08
612.79,165.15
613.96,161.70
615.14,158.65
616.32,156.49
617.50,155.86
618.68,155.23
619.86,154.55
621.04,153.62
622.21,151.85
623.39,149.81
624.57,148.24
625.75,146.87
626.93,145.07
628.11,142.45
629.29,139.19
630.46,136.33
631.64,134.80
632.82,134.36
634.00,134.17
635.18,133.98
636.36,132.95
637.54,131.23
638.71,128.97
639.89,126.42
641.07,124.25
642.25,123.18
643.43,122.77
644.61,122.01
645.79,120.87
646.96,119.45
648.14,117.21
649.32,114.59
650.50,113.85
651.68,113.10
652.86,112.56
654.04,111.20
655.21,108.61
656.39,106.43
657.57,105.86
658.75,106.18
659.93,106.07
661.11,105.20
662.29,104.08
663.46,103.17
664.64,102.34
665.82,100.94
667.00,99.88
668.18,98.82
669.36,96.69
670.54,95.27
671.71,94.89
672.89,95.15
674.07,94.80
675.25,92.98
676.43,90.43
677.61,88.43
678.79,87.27
679.96,86.37
681.14,85.30
682.32,84.08
683.50,83.56
684.68,83.04
685.86,82.42
687.04,82.13
688.21,81.78
689.39,80.78
690.57,79.11
691.75,77.62
692.93,76.66
694.11,75.68
695.29,74.35
696.46,73.17
697.64,72.90
698.82,73.17
700.00,72.86
701.00,72.55
702.98,70.67
704.96,68.93
706.94,68.47
708.92,68.95
710.90,69.41
712.88,69.15
714.86,68.22
716.84,67.70
718.82,68.10
720.80,67.89
722.78,66.07
724.76,64.34
726.74,64.24
728.72,64.15
730.70,64.59
732.68,64.55
734.66,63.89
736.64,63.01
738.62,62.72
740.60,63.37
742.58,64.14
744.56,64.18
746.54,63.47
748.52,62.34
750.50,61.08
752.48,60.06
754.46,59.78
756.44,59.51
758.42,59.20
760.40,58.73
762.38,58.12
764.36,57.73
766.34,57.33
768.32,56.49
770.30,55.27
772.28,53.99
774.26,53.14
776.24,53.11
778.22,53.57
780.20,53.65
782.18,53.27
784.16,52.90
786.14,51.76
788.12,50.85
790.10,50.02
792.08,49.34
794.06,49.59
796.04,50.71
798.02,51.56
800.00,51.68
801.00,51.60
803.36,51.73
805.71,51.69
808.07,50.89
810.43,50.13
812.79,49.36
815.14,47.37
817.50,45.22
819.86,43.64
822.21,42.99
824.57,43.19
826.93,44.20
829.29,45.42
831.64,45.74
834.00,44.97
836.36,44.12
838.71,43.99
841.07,44.26
843.43,44.27
845.79,44.27
848.14,43.97
850.50,43.51
852.86,42.87
855.21,42.46
857.57,42.56
859.93,42.74
862.29,42.69
864.64,42.32
867.00,41.20
869.36,39.43
871.71,38.08
874.07,37.67
876.43,37.49
878.79,37.32
881.14,36.20
883.50,34.99
885.86,34.83
888.21,35.40
890.57,35.59
892.93,35.43
895.29,35.81
897.64,36.74
900.00,36.94
901.00,35.78
904.67,34.39
908.33,33.75
912.00,33.42
915.67,33.10
919.33,31.79
923.00,30.68
926.67,30.59
930.33,31.41
934.00,32.87
937.67,34.38
941.33,34.86
945.00,34.30
948.67,33.78
952.33,33.40
956.00,32.63
959.67,31.99
963.33,32.21
967.00,32.48
970.67,32.76
974.33,32.96
978.00,32.75
981.67,32.19
985.33,31.54
989.00,31.30
992.67,31.48
996.33,31.88
1000.00,32.31
1001.00,31.96
1006.10,30.42
1011.21,28.84
1016.31,28.32
1021.41,28.49
1026.51,28.67
1031.62,29.43
1036.72,30.36
1041.82,30.91
1046.92,30.79
1052.03,30.77
1057.13,31.65
1062.23,33.07
1067.33,34.00
1072.44,33.79
1077.54,32.45
1082.64,30.77
1087.74,29.77
1092.85,29.72
1097.95,29.67
1103.05,29.91
1108.15,29.95
1113.26,29.60
1118.36,29.08
1123.46,28.82
1128.56,28.47
1133.67,27.04
1138.77,25.08
1143.87,24.38
1148.97,25.30
1154.08,26.93
1159.18,28.83
1164.28,29.62
1169.38,30.40
1174.49,30.55
1179.59,29.15
1184.69,27.79
1189.79,27.78
1194.90,28.07
1200.00,27.04
1201.00,25.43
1210.06,24.75
1219.12,24.76
1228.18,24.50
1237.24,24.16
1246.30,24.31
1255.36,24.43
1264.42,24.54
1273.48,24.13
1282.55,23.37
1291.61,23.03
1300.67,23.09
1309.73,23.05
1318.79,22.83
1327.85,22.65
1336.91,22.61
1345.97,22.44
1355.03,21.92
1364.09,21.07
1373.15,19.86
1382.21,19.23
1391.27,18.60
1400.33,18.33
1409.39,19.35
1418.45,20.44
1427.52,20.87
1436.58,21.58
1445.64,22.90
1454.70,23.82
1463.76,24.17
1472.82,24.49
1481.88,24.36
1490.94,23.38
1500.00,22.22
1501.00,21.82
1510.24,21.43
1519.48,20.67
1528.72,19.70
1537.96,19.31
1547.20,20.10
1556.44,21.03
1565.69,21.01
1574.93,20.38
1584.17,19.87
1593.41,19.69
1602.65,19.70
1611.89,19.51
1621.13,18.75
1630.37,18.25
1639.61,17.74
1648.85,17.45
1658.09,18.07
1667.33,18.14
1676.57,16.62
1685.81,14.82
1695.06,14.65
1704.30,16.00
1713.54,17.09
1722.78,16.85
1732.02,16.20
1741.26,16.62
1750.50,17.62
1759.74,17.60
1768.98,17.57
1778.22,16.53
1787.46,15.90
1796.70,16.00
1805.94,16.13
1815.19,15.85
1824.43,15.28
1833.67,14.69
1842.91,14.09
1852.15,13.33
1861.39,12.48
1870.63,11.91
1879.87,12.05
1889.11,12.61
1898.35,13.18
1907.59,14.92
1916.83,15.77
1926.07,15.05
1935.31,14.17
1944.56,14.24
1953.80,14.49
1963.04,13.96
1972.28,12.73
1981.52,11.68
1990.76,11.47
2000.00,11.94
2001.00,12.59
2018.22,12.88
2035.45,13.16
2052.67,13.42
2069.90,13.19
2087.12,12.80
2104.34,12.65
2121.57,12.85
2138.79,13.32
2156.02,13.81
2173.24,13.93
2190.47,13.69
2207.69,13.18
2224.91,12.27
2242.14,11.40
2259.36,11.32
2276.59,11.24
2293.81,11.42
2311.03,11.44
2328.26,11.66
2345.48,12.26
2362.71,12.99
2379.93,13.85
2397.16,14.67
2414.38,14.62
2431.60,13.42
2448.83,12.03
2466.05,11.57
2483.28,12.22
2500.50,12.53
2517.72,12.85
2534.95,12.29
2552.17,10.88
2569.40,9.81
2586.62,9.96
2603.84,11.67
2621.07,13.87
2638.29,14.39
2655.52,13.20
2672.74,12.71
2689.97,13.75
2707.19,14.60
2724.41,14.53
2741.64,14.41
2758.86,14.29
2776.09,13.54
2793.31,11.85
2810.53,10.62
2827.76,11.05
2844.98,12.16
2862.21,12.66
2879.43,12.66
2896.66,12.60
2913.88,12.69
2931.10,13.09
2948.33,13.53
2965.55,13.42
2982.78,13.03
3000.00,12.64
3001.00,11.48
3025.99,10.30
3050.98,9.76
3075.98,10.32
3100.97,11.64
3125.96,12.71
3150.95,12.58
3175.94,11.15
3200.93,9.44
3225.93,8.85
3250.92,9.55
3275.91,10.34
3300.90,10.72
3325.89,11.01
3350.88,11.29
3375.87,12.02
3400.87,12.03
3425.86,11.05
3450.85,9.66
3475.84,8.30
3500.83,7.28
3525.82,6.90
3550.82,7.06
3575.81,7.38
3600.80,7.89
3625.79,8.60
3650.78,8.83
3675.77,8.50
3700.77,8.17
3725.76,7.29
3750.75,6.84
3775.74,6.61
3800.73,6.03
3825.73,5.04
3850.72,4.47
3875.71,4.84
3900.70,5.36
3925.69,5.40
3950.68,5.58
3975.68,6.37
4000.67,6.99
4025.66,6.83
4050.65,6.67
4075.64,5.99
4100.63,6.06
4125.62,6.88
4150.62,7.36
4175.61,6.93
4200.60,6.39
4225.59,6.77
4250.58,8.00
4275.58,9.12
4300.57,9.22
4325.56,8.03
4350.55,6.56
4375.54,6.53
4400.53,6.49
4425.52,7.77
4450.52,8.73
4475.51,8.52
4500.50,7.47
4525.49,6.13
4550.48,5.12
4575.48,4.62
4600.47,4.11
4625.46,3.41
4650.45,3.06
4675.44,3.52
4700.43,4.78
4725.42,5.59
4750.42,6.40
4775.41,7.41
4800.40,7.04
4825.39,6.08
4850.38,6.00
4875.37,6.60
4900.37,6.61
4925.36,6.16
4950.35,6.28
4975.34,6.68
5000.33,6.45
5025.33,5.76
5050.32,5.27
5075.31,5.08
5100.30,4.88
5125.29,4.06
5150.28,3.06
5175.27,2.91
5200.27,4.11
5225.26,5.94
5250.25,7.25
5275.24,7.58
5300.23,7.59
5325.23,7.68
5350.22,7.55
5375.21,7.41
5400.20,7.72
5425.19,7.78
5450.18,7.84
5475.17,6.91
5500.17,5.21
5525.16,3.49
5550.15,2.18
5575.14,2.04
5600.13,3.39
5625.12,5.15
5650.12,6.45
5675.11,8.99
5700.10,17.67
5725.09,42.23
5750.08,100.45
5775.08,159.00
5800.07,217.54
5825.06,415.75
5850.05,697.99
5875.04,1038.42
5900.03,1387.65
5925.02,1685.13
5950.02,1871.14
5975.01,1901.61
6000.00,1766.54
6024.79,1499.35
6049.64,1164.56
6074.48,830.18
6099.32,544.94
6124.16,437.97
6149.01,331.01
6173.85,188.27
6198.69,103.17
6223.53,57.41
6248.38,34.64
6273.22,24.19
6298.06,20.50
6322.90,19.82
6347.75,18.92
6372.59,16.46
6397.43,13.61
6422.27,12.23
6447.12,12.62
6471.96,12.99
6496.80,13.35
6521.65,13.16
6546.49,12.56
6571.33,12.78
6596.17,13.62
6621.02,13.58
6645.86,12.40
6670.70,11.21
6695.54,10.23
6720.39,9.04
6745.23,8.11
6770.07,7.83
6794.91,7.42
6819.76,6.89
6844.60,6.35
6869.44,5.36
6894.28,5.16
6919.13,5.56
6943.97,6.01
6968.81,6.33
6993.65,6.93
7018.50,8.08
7043.34,8.89
7068.18,8.29
7093.02,6.87
7117.87,6.02
7142.71,5.87
7167.55,5.81
7192.39,5.76
7217.24,5.70
7242.08,6.02
7266.92,6.14
7291.77,5.42
7316.61,4.30
7341.45,3.40
7366.29,2.69
7391.14,2.42
7415.98,3.27
7440.82,4.98
7465.66,6.33
7490.51,7.01
7515.35,7.28
7540.19,7.55
7565.03,7.51
7589.88,6.09
7614.72,3.67
7639.56,1.62
7664.40,1.38
7689.25,2.99
7714.09,4.30
7738.93,3.95
7763.77,3.52
7788.62,4.36
7813.46,5.60
7838.30,6.59
7863.14,7.03
7887.99,7.47
7912.83,7.51
7937.67,6.23
7962.51,4.73
7987.36,3.79
8012.20,2.67
8037.04,1.21
8061.89,0.56
8086.73,1.20
8111.57,1.89
8136.41,1.46
8161.26,0.29
8186.10,-0.44
8210.94,-0.36
8235.78,-0.28
8260.63,-0.02
8285.47,-0.60
8310.31,-1.78
8335.15,-2.46
8360.00,-2.11
8384.84,-1.21
8409.68,-0.72
8434.52,-0.99
8459.37,-1.45
8484.21,-1.99
8509.05,-3.04
8533.89,-3.82
8558.74,-3.59
8583.58,-3.37
8608.42,-3.00
8633.26,-4.26
8658.11,-5.94
8682.95,-5.88
8707.79,-4.13
8732.63,-2.29
8757.48,-1.36
8782.32,-1.29
8807.16,-1.67
8832.00,-1.80
8856.85,-1.17
8881.69,-0.35
8906.53,-0.11
8931.37,-0.19
8956.22,-0.27
8981.06,-0.54
9005.90,-0.74
9030.75,-0.43
9055.59,0.14
9080.43,0.32
9105.27,0.25
9130.12,0.21
9154.96,-0.19
9179.80,-0.99
9204.64,-1.20
9229.49,-0.22
9254.33,0.78
9279.17,0.70
9304.01,0.61
9328.86,0.04
9353.70,0.53
9378.54,1.65
9403.38,1.53
9428.23,-0.21
9453.07,-1.88
9477.91,-2.07
9502.75,-0.97
9527.60,0.23
9552.44,0.47
9577.28,0.37
9602.12,1.03
9626.97,1.40
9651.81,1.76
9676.65,1.41
9701.50,0.45
9726.34,-0.17
9751.18,-0.39
9776.02,-0.67
9800.87,-1.11
9825.71,-1.41
9850.55,-1.28
9875.39,-0.96
9900.24,-1.01
9925.08,-1.57
9949.92,-2.29
9974.76,-2.51
9999.61,-2.72
10024.45,-2.50
10049.29,-1.91
10074.13,-1.64
10098.98,-1.69
10123.82,-1.45
10148.66,-0.70
10173.50,-0.15
10198.35,-0.59
10223.19,-2.10
10248.03,-3.59
10272.87,-3.52
10297.72,-2.04
10322.56,-1.63
10347.40,-1.22
10372.25,-1.93
10397.09,-2.82
10421.93,-2.62
10446.77,-1.42
10471.62,-0.03
10496.46,0.72
10521.30,0.62
10546.14,0.28
10570.99,0.18
10595.83,0.09
10620.67,-0.16
10645.51,-0.08
10670.36,0.20
10695.20,0.48
10720.04,0.42
10744.88,-0.75
10769.73,-2.09
10794.57,-2.72
10819.41,-2.71
10844.25,-2.77
10869.10,-3.60
10893.94,-4.56
10918.78,-4.10
10943.62,-2.23
10968.47,-0.44
10993.31,0.42
11018.15,0.43
11043.00,0.43
11067.84,-0.23
11092.68,-1.30
11117.52,-2.39
11142.37,-3.08
11167.21,-3.09
11192.05,-2.46
11216.89,-1.54
11241.74,-0.88
11266.58,-1.12
11291.42,-2.31
11316.26,-3.41
11341.11,-3.50
11365.95,-3.09
11390.79,-2.68
11415.63,-1.44
11440.48,-0.11
11465.32,1.05
11490.16,1.81
11515.00,1.80
11539.85,0.75
11564.69,-1.10
11589.53,-2.44
11614.37,-1.71
11639.22,0.61
11664.06,2.21
11688.90,1.98
11713.74,1.44
11738.59,0.90
11763.43,-0.23
11788.27,-1.62
11813.12,-2.94
11837.96,-3.26
11862.80,-2.73
11887.64,-2.44
11912.49,-2.67
11937.33,-2.72
11962.17,-2.15
11987.01,-1.60
12011.86,-1.96
12036.70,-2.73
12061.54,-2.74
12086.38,-2.74
12111.23,-2.27
12136.07,-2.18
12160.91,-2.09
12185.75,-1.27
12210.60,0.05
12235.44,1.25
12260.28,1.77
12285.12,1.17
12309.97,-0.15
12334.81,-1.02
12359.65,-0.81
12384.49,0.17
12409.34,0.58
12434.18,0.99
12459.02,1.00
12483.86,1.09
12508.71,2.53
12533.55,4.62
12558.39,5.49
12583.24,4.62
12608.08,2.91
12632.92,1.17
12657.76,-0.12
12682.61,-0.17
12707.45,1.16
12732.29,2.33
12757.13,2.07
12781.98,1.82
12806.82,-0.02
12831.66,-1.88
12856.50,-2.45
12881.35,-1.01
12906.19,1.49
12931.03,2.92
12955.87,2.07
12980.72,-0.22
13005.56,-2.03
13030.40,-2.49
13055.24,-2.29
13080.09,-2.11
13104.93,-1.90
13129.77,-1.70
13154.61,-0.75
13179.46,0.46
13204.30,1.63
13229.14,2.23
13253.98,1.36
13278.83,-0.91
13303.67,-2.90
13328.51,-3.04
13353.35,-1.64
13378.20,-0.19
13403.04,0.65
13427.88,1.11
13452.73,1.24
13477.57,1.37
13502.41,1.64
13527.25,2.04
13552.10,2.02
13576.94,1.18
13601.78,0.16
13626.62,-0.30
13651.47,-0.34
13676.31,-0.68
13701.15,-1.72
13725.99,-3.02
13750.84,-3.70
13775.68,-3.42
13800.52,-3.06
13825.36,-2.70
13850.21,-1.83
13875.05,-0.60
13899.89,0.62
13924.73,0.90
13949.58,-0.11
13974.42,-1.79
13999.26,-3.03
14024.10,-3.12
14048.95,-2.59
14073.79,-2.52
14098.63,-3.09
14123.47,-3.58
14148.32,-3.31
14173.16,-2.93
14198.00,-2.55
14222.85,-2.13
14247.69,-1.84
14272.53,-0.93
14297.37,0.16
14322.22,0.68
14347.06,0.91
14371.90,1.13
14396.74,1.06
14421.59,0.35
14446.43,-0.93
14471.27,-2.24
14496.11,-2.89
14520.96,-2.68
14545.80,-2.47
14570.64,-1.20
14595.48,0.01
14620.33,0.41
14645.17,-0.02
14670.01,-0.71
14694.85,-0.56
14719.70,1.17
14744.54,3.63
14769.38,4.95
14794.22,3.96
14819.07,1.26
14843.91,-1.17
14868.75,-1.44
14893.59,-1.71
14918.44,-0.81
14943.28,-0.50
14968.12,-1.54
14992.97,-2.30
15017.81,-1.46
15042.65,-0.03
15067.49,0.56
15092.34,0.34
15117.18,-0.29
15142.02,-1.47
15166.86,-2.58
15191.71,-2.82
15216.55,-2.81
15241.39,-2.80
15266.23,-3.10
15291.08,-3.10
15315.92,-2.67
15340.76,-2.39
15365.60,-2.15
15390.45,-1.75
15415.29,-1.62
15440.13,-1.89
15464.97,-2.01
15489.82,-1.55
15514.66,-0.97
15539.50,-1.09
15564.34,-1.48
15589.19,-1.86
15614.03,-2.43
15638.87,-2.14
15663.71,-0.79
15688.56,1.51
15713.40,3.62
15738.24,3.72
15763.08,1.76
15787.93,-0.20
15812.77,-0.77
15837.61,-0.55
15862.46,-0.47
15887.30,-0.78
15912.14,-1.02
15936.98,-1.27
15961.83,-1.87
15986.67,-2.55
16011.51,-2.60
16036.35,-1.16
16061.20,1.18
16086.04,2.59
16110.88,2.27
16135.72,1.36
16160.57,1.37
16185.41,2.30
16210.25,2.98
16235.09,2.58
16259.94,1.94
16284.78,1.29
16309.62,-0.03
16334.46,-1.13
16359.31,-2.67
16384.15,-4.30
16408.99,-4.34
16433.84,-2.31
16458.68,0.12
16483.52,1.45
16508.36,1.82
16533.21,1.64
16558.05,0.49
16582.89,-1.65
16607.73,-2.52
16632.58,-3.38
16657.42,-3.42
16682.26,-2.44
16707.10,-2.06
16731.95,-2.60
16756.79,-2.76
16781.63,-1.71
16806.47,-0.37
16831.32,0.19
16856.16,0.18
16881.00,0.02
16905.84,-0.60
16930.69,-1.72
16955.53,-2.00
16980.37,-2.29
17005.21,-1.56
17030.06,-0.60
17054.90,-0.72
17079.74,-1.55
17104.58,-1.95
17129.43,-1.60
17154.27,-1.23
17179.11,-1.55
17203.96,-2.49
17228.80,-3.58
17253.64,-4.18
17278.48,-3.94
17303.33,-3.55
17328.17,-3.16
17353.01,-2.06
17377.85,-0.60
17402.70,0.41
17427.54,0.12
17452.38,-0.82
17477.22,-1.36
17502.07,-1.40
17526.91,-1.13
17551.75,-0.46
17576.59,0.20
17601.44,0.04
17626.28,-1.17
17651.12,-1.95
17675.96,-2.73
17700.81,-3.58
17725.65,-3.30
17750.49,-2.58
17775.33,-2.11
17800.18,-1.79
17825.02,-1.30
17849.86,-0.87
17874.71,-0.99
17899.55,-1.49
17924.39,-1.45
17949.23,-0.37
17974.07,0.98
17998.92,1.27
18023.76,1.55
18048.60,1.27
18073.45,0.49
18098.29,-0.70
18123.13,-1.94
18147.97,-2.29
18172.82,-1.44
18197.66,-0.34
18222.50,-0.21
18247.34,-1.15
18272.19,-2.00
18297.03,-1.87
18321.87,-1.28
18346.71,-1.08
18371.56,-0.88
18396.40,-0.39
18421.24,0.27
18446.08,0.59
18470.93,0.51
18495.77,0.49
18520.61,0.62
18545.46,0.57
