Size (bp),Intensity
0.58,1548.23
1.00,1450.03
2.00,1081.31
2.42,650.54
2.84,328.04
3.26,153.91
3.68,82.15
4.10,58.61
4.52,53.08
4.94,53.47
5.36,54.93
5.79,55.28
6.21,53.80
6.63,50.64
7.05,46.14
7.47,43.28
7.89,40.43
8.31,33.57
8.73,26.20
9.15,19.74
9.57,15.70
9.99,14.27
10.41,14.21
10.83,14.35
11.25,14.30
11.67,13.93
12.09,12.96
12.52,11.06
12.94,8.38
13.36,5.82
13.78,4.50
14.20,4.68
14.62,5.71
15.04,7.65
15.46,12.25
15.88,21.43
16.30,34.18
16.72,44.99
17.14,46.96
17.56,38.40
17.98,24.91
18.40,13.87
18.82,8.15
19.24,5.81
19.67,4.52
20.09,4.36
20.51,4.20
20.93,4.92
21.35,5.41
21.77,5.06
22.19,4.53
22.61,4.04
23.03,3.17
23.45,1.81
23.87,0.30
24.29,-0.93
24.71,-1.70
25.13,-2.04
25.55,-1.88
25.97,-1.16
26.39,-0.18
26.82,0.26
27.24,-0.19
27.66,-0.82
28.08,-0.96
28.50,-0.94
28.92,-1.28
29.34,-1.77
29.76,-2.03
30.18,-1.86
30.60,-1.13
31.02,-0.19
31.44,0.49
31.86,0.88
32.28,0.98
32.70,0.83
33.12,0.67
33.55,0.19
33.97,-0.36
34.39,-0.81
34.81,-0.23
35.23,1.57
35.65,2.97
36.07,2.44
36.49,0.54
36.91,-0.92
37.33,-1.03
37.75,-0.40
38.17,-0.11
38.59,-0.56
39.01,-0.88
39.43,0.11
39.85,1.93
40.27,2.81
40.70,2.27
41.12,1.41
41.54,0.85
41.96,0.09
42.38,-0.84
42.80,-0.85
43.22,0.44
43.64,2.00
44.06,3.09
44.48,3.87
44.90,4.12
45.32,4.36
45.74,4.27
46.16,4.15
46.58,4.57
47.00,4.82
47.42,4.42
47.85,4.08
48.27,4.46
48.69,5.62
49.11,7.49
49.53,9.60
49.95,11.00
50.37,11.11
50.79,10.24
51.21,8.43
51.63,5.44
52.05,2.40
52.47,1.36
52.89,2.45
53.31,3.66
53.73,3.85
54.15,3.97
54.58,4.61
55.00,5.15
55.42,5.25
55.84,4.94
56.26,3.78
56.68,1.69
57.10,-0.37
57.52,-0.95
57.94,-1.52
58.36,-1.47
58.78,-0.29
59.20,1.21
59.62,2.23
60.04,2.88
60.46,3.32
60.88,3.19
61.30,2.24
61.73,0.96
62.15,0.17
62.57,-0.03
62.99,-0.09
63.41,-0.03
63.83,0.31
64.25,0.88
64.67,1.61
65.09,2.52
65.51,3.73
65.93,5.36
66.35,6.77
66.77,6.94
67.19,6.36
67.61,6.38
68.03,6.96
68.45,6.90
68.88,5.63
69.30,3.63
69.72,1.98
70.14,1.71
70.56,1.44
70.98,1.65
71.40,1.68
71.82,1.50
72.24,1.49
72.66,1.21
73.08,0.42
73.50,-0.01
73.92,0.31
74.34,0.55
74.76,0.27
75.18,0.06
75.61,0.48
76.03,1.35
76.45,1.63
76.87,0.64
77.29,-0.79
77.71,-1.13
78.13,-0.03
78.55,1.42
78.97,2.24
79.39,2.54
79.81,2.92
80.23,3.43
80.65,3.48
81.07,2.64
81.49,1.46
81.91,1.09
82.33,1.78
82.76,2.18
83.18,2.57
83.60,2.87
84.02,2.88
84.44,2.33
84.86,1.26
85.28,0.67
85.70,0.94
86.12,1.40
86.54,1.59
86.96,1.69
87.38,2.21
87.80,2.89
88.22,2.52
88.64,1.20
89.06,0.28
89.48,-0.12
89.91,-0.66
90.33,-0.86
90.75,0.02
91.17,1.17
91.59,1.06
92.01,-0.04
92.43,-0.57
92.85,-0.31
93.27,-0.23
93.69,-0.26
94.11,0.59
94.53,2.35
94.95,3.57
95.37,3.45
95.79,3.33
96.21,2.41
96.64,1.77
97.06,1.50
97.48,1.41
97.90,1.12
98.32,0.39
98.74,0.02
99.16,0.68
99.58,1.43
100.00,1.16
101.00,0.29
101.52,-0.32
102.04,-0.66
102.56,-0.67
103.08,0.17
103.61,1.59
104.13,2.38
104.65,1.73
105.17,0.19
105.69,-1.06
106.21,-1.30
106.73,-0.72
107.25,0.07
107.77,0.81
108.29,1.83
108.82,3.04
109.34,3.31
109.86,2.75
110.38,2.20
110.90,1.44
111.42,2.35
111.94,3.40
112.46,2.78
112.98,1.27
113.51,0.58
114.03,0.82
114.55,1.15
115.07,1.48
115.59,2.17
116.11,2.69
116.63,2.22
117.15,1.08
117.67,0.18
118.19,-0.07
118.72,0.52
119.24,1.55
119.76,2.29
120.28,2.74
120.80,3.10
121.32,3.03
121.84,2.61
122.36,2.85
122.88,4.23
123.41,5.72
123.93,6.02
124.45,5.14
124.97,3.91
125.49,3.54
126.01,3.18
126.53,3.49
127.05,4.36
127.57,4.64
128.09,4.37
128.62,4.51
129.14,5.05
129.66,4.73
130.18,3.22
130.70,2.07
131.22,2.51
131.74,3.70
132.26,4.46
132.78,4.90
133.31,5.28
133.83,5.27
134.35,4.87
134.87,4.40
135.39,4.14
135.91,4.40
136.43,4.84
136.95,4.42
137.47,3.01
137.99,1.67
138.52,1.30
139.04,1.85
139.56,2.43
140.08,2.30
140.60,2.02
141.12,2.35
141.64,2.68
142.16,4.16
142.68,5.27
143.21,5.17
143.73,4.03
144.25,2.85
144.77,2.62
145.29,3.31
145.81,3.86
146.33,4.01
146.85,4.42
147.37,4.64
147.89,3.84
148.42,2.95
148.94,3.44
149.46,5.01
149.98,6.33
150.50,6.83
151.02,6.87
151.54,6.78
152.06,6.66
152.58,6.54
153.11,6.40
153.63,6.61
154.15,7.66
154.67,9.07
155.19,10.02
155.71,10.65
156.23,11.42
156.75,11.88
157.27,12.35
157.79,13.44
158.32,14.59
158.84,15.33
159.36,15.52
159.88,15.31
160.40,14.86
160.92,14.80
161.44,15.43
161.96,15.88
162.48,15.43
163.01,14.45
163.53,13.73
164.05,14.11
164.57,15.56
165.09,16.61
165.61,16.27
166.13,15.68
166.65,16.41
167.17,18.13
167.69,19.42
168.22,19.45
168.74,18.66
169.26,18.52
169.78,19.87
170.30,21.63
170.82,22.68
171.34,23.47
171.86,24.75
172.38,25.57
172.91,26.38
173.43,27.72
173.95,28.53
174.47,29.05
174.99,29.59
175.51,30.70
176.03,32.73
176.55,34.87
177.07,36.33
177.59,37.77
178.12,40.15
178.64,43.17
179.16,46.18
179.68,48.98
180.20,51.58
180.72,54.41
181.24,58.21
181.76,62.94
182.28,67.65
182.81,71.67
183.33,75.31
183.85,79.36
184.37,84.38
184.89,90.37
185.41,96.50
185.93,101.95
186.45,106.81
186.97,111.22
187.49,114.74
188.02,116.07
188.54,117.40
189.06,119.94
189.58,122.87
190.10,125.97
190.62,128.69
191.14,131.02
191.66,133.65
192.18,137.13
192.71,141.37
193.23,145.95
193.75,150.41
194.27,154.91
194.79,160.18
195.31,165.91
195.83,171.19
196.35,176.61
196.87,183.58
197.39,192.55
197.92,202.57
198.44,212.34
198.96,221.52
199.48,230.23
200.00,237.78
201.00,243.86
201.59,250.14
202.17,258.31
202.76,268.21
203.34,279.10
203.93,284.76
204.51,290.42
205.10,301.07
205.69,310.57
206.27,319.58
206.86,328.57
207.44,337.40
208.03,345.39
208.62,351.93
209.20,357.51
209.79,363.09
210.37,368.78
210.96,374.15
211.54,379.20
212.13,384.61
212.72,390.95
213.30,397.98
213.89,405.08
214.47,411.80
215.06,418.17
215.64,424.91
216.23,432.98
216.82,442.04
217.40,450.63
217.99,458.26
218.57,466.20
219.16,475.47
219.75,485.05
220.33,493.14
220.92,499.66
221.50,502.93
222.09,506.19
222.67,513.26
223.26,519.02
223.85,521.94
224.43,523.54
225.02,526.05
225.60,529.74
226.19,534.28
226.78,539.55
227.36,544.91
227.95,549.71
228.53,554.28
229.12,559.91
229.70,567.26
230.29,575.15
230.88,582.43
231.46,589.73
232.05,598.31
232.63,607.97
233.22,617.12
233.80,624.65
234.39,630.97
234.98,636.91
235.56,642.33
236.15,645.91
236.73,646.77
237.32,645.61
237.91,644.00
238.49,643.63
239.08,644.66
239.66,645.68
240.25,649.89
240.83,655.19
241.42,661.61
242.01,669.42
242.59,677.46
243.18,684.04
243.76,688.34
244.35,690.07
244.93,689.18
245.52,686.30
246.11,682.66
246.69,679.14
247.28,675.70
247.86,672.50
248.45,670.37
249.04,669.91
249.62,670.36
250.21,670.04
250.79,668.41
251.38,666.35
251.96,663.87
252.55,659.64
253.14,653.05
253.72,645.46
254.31,638.97
254.89,634.36
255.48,631.45
256.07,630.20
256.65,630.34
257.24,630.47
257.82,631.76
258.41,633.29
258.99,634.03
259.58,633.38
260.17,630.72
260.75,624.47
261.34,614.48
261.92,603.18
262.51,591.92
263.09,579.62
263.68,566.71
264.27,555.94
264.85,548.49
265.44,543.09
266.02,538.72
266.61,535.74
267.20,534.17
267.78,532.91
268.37,531.21
268.95,529.37
269.54,527.30
270.12,523.82
270.71,518.48
271.30,512.70
271.88,508.32
272.47,505.45
273.05,502.28
273.64,497.69
274.22,495.33
274.81,492.98
275.40,489.42
275.98,486.47
276.57,483.48
277.15,480.65
277.74,478.28
278.33,475.98
278.91,472.29
279.50,466.24
280.08,459.40
280.67,454.31
281.25,451.06
281.84,447.94
282.43,444.31
283.01,440.95
283.60,438.69
284.18,437.64
284.77,437.24
285.36,437.02
285.94,437.29
286.53,438.55
287.11,440.54
287.70,442.10
288.28,441.66
288.87,438.13
289.46,432.46
290.04,427.30
290.63,423.77
291.21,422.10
291.80,420.43
292.38,416.37
292.97,412.61
293.56,410.01
294.14,408.44
294.73,407.72
295.31,407.77
295.90,407.97
296.49,407.07
297.07,404.23
297.66,400.11
298.24,396.14
298.83,393.04
299.41,391.11
300.00,390.64
301.00,390.62
301.70,389.29
302.39,386.72
303.09,384.21
303.79,382.09
304.49,380.21
305.18,379.46
305.88,380.65
306.58,382.63
307.27,383.51
307.97,383.07
308.67,382.42
309.37,381.91
310.06,381.03
310.76,380.33
311.46,379.64
312.15,377.77
312.85,375.03
313.55,371.39
314.25,367.52
314.94,364.18
315.64,361.64
316.34,359.19
317.04,355.76
317.73,350.89
318.43,345.11
319.13,339.92
319.82,336.06
320.52,332.10
321.22,326.81
321.92,321.33
322.61,316.93
323.31,313.04
324.01,308.29
324.70,302.49
325.40,297.21
326.10,293.56
326.80,290.38
327.49,286.48
328.19,282.39
328.89,278.64
329.58,274.69
330.28,270.26
330.98,266.17
331.68,264.70
332.37,263.23
333.07,261.07
333.77,259.16
334.46,257.73
335.16,256.93
335.86,256.03
336.56,254.26
337.25,251.84
337.95,249.72
338.65,248.58
339.35,248.42
340.04,248.52
340.74,248.01
341.44,246.98
342.13,246.52
342.83,247.11
343.53,248.12
344.23,248.58
344.92,247.89
345.62,246.01
346.32,243.16
347.01,239.60
347.71,235.98
348.41,233.31
349.11,231.83
349.80,230.54
350.50,228.65
351.20,226.60
351.89,225.26
352.59,225.29
353.29,225.33
353.99,226.99
354.68,229.43
355.38,231.01
356.08,230.44
356.77,228.01
357.47,225.36
358.17,223.35
358.87,221.21
359.56,218.48
360.26,215.81
360.96,213.51
361.65,211.04
362.35,208.27
363.05,206.02
363.75,205.26
364.44,205.88
365.14,206.83
365.84,207.04
366.54,205.98
367.23,204.18
367.93,202.93
368.63,202.84
369.32,202.69
370.02,201.09
370.72,198.61
371.42,196.82
372.11,195.96
372.81,195.31
373.51,195.02
374.20,194.72
374.90,194.07
375.60,192.69
376.30,190.71
376.99,189.26
377.69,189.04
378.39,189.60
379.08,189.59
379.78,188.53
380.48,187.86
381.18,188.76
381.87,190.48
382.57,191.99
383.27,192.68
383.96,191.93
384.66,189.88
385.36,187.68
386.06,186.40
386.75,186.38
387.45,187.16
388.15,187.53
388.85,186.77
389.54,185.82
390.24,185.42
390.94,184.78
391.63,183.36
392.33,181.62
393.03,179.73
393.73,177.75
394.42,176.97
395.12,176.18
395.82,174.86
396.51,173.11
397.21,171.59
397.91,171.78
398.61,174.04
399.30,177.09
400.00,179.05
401.00,178.96
401.72,177.60
402.45,176.22
403.17,175.21
403.89,174.48
404.61,173.75
405.34,172.86
406.06,172.46
406.78,173.08
407.50,173.75
408.23,173.54
408.95,173.40
409.67,174.38
410.39,175.21
411.12,174.20
411.84,171.95
412.56,170.24
413.28,169.21
414.01,167.50
414.73,164.19
415.45,162.06
416.18,159.92
416.90,156.20
417.62,153.82
418.34,151.98
419.07,149.84
419.79,147.91
420.51,146.67
421.23,145.39
421.96,143.66
422.68,141.90
423.40,140.25
424.12,138.90
424.85,138.29
425.57,138.05
426.29,137.39
427.01,136.52
427.74,136.03
428.46,135.68
429.18,134.62
429.91,133.00
430.63,132.22
431.35,132.77
432.07,133.53
432.80,133.78
433.52,133.73
434.24,133.11
434.96,131.56
435.69,129.90
436.41,129.36
437.13,129.65
437.85,129.94
438.58,130.54
439.30,130.34
440.02,129.38
440.74,127.93
441.47,125.95
442.19,123.58
442.91,121.80
443.64,121.89
444.36,124.05
445.08,126.72
445.80,127.78
446.53,126.73
447.25,124.96
447.97,123.65
448.69,122.98
449.42,122.65
450.14,122.35
450.86,122.47
451.58,123.63
452.31,125.45
453.03,126.87
453.75,127.64
454.47,128.06
455.20,127.86
455.92,126.68
456.64,125.13
457.36,124.03
458.09,123.19
458.81,122.88
459.53,122.57
460.26,122.83
460.98,123.96
461.70,124.96
462.42,124.97
463.15,123.94
463.87,122.54
464.59,121.45
465.31,120.95
466.04,121.02
466.76,121.32
467.48,121.30
468.20,120.51
468.93,118.75
469.65,116.08
470.37,112.88
471.09,109.68
471.82,107.19
472.54,106.10
473.26,106.56
473.99,107.92
474.71,108.99
475.43,108.78
476.15,107.58
476.88,106.57
477.60,106.37
478.32,107.14
479.04,108.96
479.77,110.43
480.49,109.72
481.21,109.01
481.93,105.05
482.66,102.29
483.38,102.22
484.10,102.41
484.82,101.24
485.55,99.54
486.27,98.21
486.99,97.05
487.72,95.64
488.44,94.14
489.16,93.01
489.88,91.89
490.61,90.41
491.33,89.77
492.05,91.34
492.77,93.70
493.50,94.10
494.22,92.31
494.94,90.56
495.66,90.22
496.39,90.42
497.11,89.97
497.83,89.35
498.55,89.56
499.28,90.08
500.00,89.57
501.00,87.84
502.01,86.02
503.02,85.55
504.03,85.08
505.04,84.70
506.05,83.87
507.06,82.79
508.07,82.68
509.08,83.84
510.09,84.96
511.10,85.04
512.11,84.75
513.12,84.93
514.13,85.01
515.14,84.29
516.15,83.66
517.16,83.96
518.17,84.22
519.18,83.38
520.19,82.04
521.20,81.20
522.21,81.03
523.22,81.13
524.23,80.72
525.24,79.10
526.26,77.04
527.27,76.26
528.28,77.05
529.29,78.10
530.30,78.34
531.31,77.64
532.32,76.46
533.33,75.85
534.34,75.25
535.35,74.30
536.36,73.76
537.37,73.25
538.38,72.25
539.39,71.21
540.40,71.18
541.41,72.03
542.42,72.00
543.43,70.09
544.44,67.78
545.45,67.00
546.46,67.35
547.47,67.41
548.48,67.16
549.49,67.10
550.50,66.87
551.51,66.47
552.52,66.43
553.53,66.42
554.54,66.02
555.55,65.84
556.56,66.56
557.57,68.05
558.58,69.40
559.59,69.68
560.60,68.78
561.61,67.35
562.62,66.91
563.63,66.47
564.64,66.74
565.65,67.57
566.66,68.17
567.67,68.39
568.68,68.41
569.69,68.68
570.70,69.31
571.71,69.26
572.72,67.71
573.73,65.61
574.74,64.38
575.76,64.23
576.77,64.36
577.78,64.36
578.79,64.57
579.80,65.14
580.81,65.32
581.82,63.82
582.83,60.48
583.84,57.19
584.85,55.96
585.86,56.53
586.87,57.25
587.88,57.57
588.89,57.92
589.90,58.21
590.91,58.07
591.92,57.81
592.93,57.82
593.94,57.83
594.95,57.96
595.96,57.87
596.97,57.75
597.98,58.09
598.99,58.51
600.00,58.03
601.00,56.79
602.18,55.68
603.36,54.77
604.54,54.12
605.71,54.37
606.89,54.94
608.07,54.40
609.25,53.00
610.43,52.39
611.61,53.27
612.79,54.64
613.96,55.11
615.14,54.33
616.32,53.28
617.50,53.36
618.68,54.82
619.86,56.26
621.04,56.53
622.21,56.10
623.39,55.84
624.57,55.53
625.75,54.54
626.93,53.88
628.11,53.23
629.29,52.55
630.46,52.24
631.64,51.16
632.82,49.37
634.00,47.91
635.18,47.09
636.36,46.76
637.54,47.07
638.71,47.85
639.89,48.62
641.07,48.64
642.25,47.15
643.43,44.67
644.61,43.21
645.79,43.88
646.96,45.68
648.14,47.08
649.32,47.54
650.50,47.11
651.68,45.84
652.86,44.19
654.04,42.79
655.21,41.81
656.39,41.24
657.57,41.18
658.75,41.61
659.93,42.43
661.11,43.43
662.29,43.74
663.46,44.05
664.64,43.80
665.82,43.06
667.00,42.41
668.18,41.66
669.36,40.59
670.54,39.76
671.71,39.64
672.89,39.77
674.07,39.45
675.25,38.61
676.43,37.77
677.61,37.26
678.79,37.00
679.96,36.87
681.14,36.73
682.32,36.60
683.50,36.84
684.68,37.50
685.86,37.96
687.04,37.94
688.21,37.57
689.39,36.67
690.57,35.38
691.75,34.34
692.93,33.86
694.11,33.68
695.29,33.53
696.46,33.38
697.64,33.19
698.82,33.01
700.00,32.37
701.00,31.81
702.98,31.02
704.96,29.67
706.94,28.95
708.92,29.93
710.90,31.28
712.88,31.03
714.86,29.50
716.84,28.81
718.82,29.83
720.80,31.41
722.78,32.35
724.76,32.47
726.74,32.04
728.72,31.40
730.70,30.53
732.68,29.08
734.66,27.46
736.64,26.56
738.62,26.42
740.60,26.62
742.58,26.95
744.56,27.28
746.54,27.71
748.52,28.43
750.50,29.06
752.48,29.02
754.46,28.98
756.44,28.17
758.42,27.14
760.40,26.29
762.38,25.79
764.36,25.69
766.34,25.65
768.32,25.46
770.30,25.52
772.28,25.62
774.26,24.84
776.24,23.52
778.22,22.93
780.20,22.92
782.18,22.64
784.16,22.52
786.14,22.85
788.12,22.81
790.10,22.32
792.08,22.07
794.06,22.09
796.04,22.29
798.02,22.68
800.00,22.62
801.00,21.58
803.36,20.18
805.71,19.47
808.07,19.80
810.43,20.48
812.79,20.39
815.14,20.29
817.50,19.17
819.86,18.62
822.21,19.53
824.57,20.91
826.93,21.59
829.29,21.62
831.64,21.39
834.00,21.01
836.36,20.76
838.71,20.63
841.07,20.19
843.43,19.86
845.79,20.05
848.14,19.96
850.50,19.06
852.86,18.25
855.21,18.27
857.57,18.71
859.93,19.02
862.29,19.19
864.64,19.39
867.00,19.31
869.36,18.77
871.71,18.24
874.07,18.28
876.43,18.61
878.79,18.43
881.14,17.45
883.50,16.91
885.86,16.36
888.21,15.92
890.57,15.98
892.93,15.88
895.29,15.16
897.64,14.01
900.00,13.08
901.00,12.79
904.67,12.87
908.33,12.99
912.00,13.12
915.67,13.33
919.33,13.44
923.00,13.05
926.67,12.32
930.33,11.92
934.00,11.74
937.67,11.29
941.33,10.86
945.00,10.68
948.67,10.40
952.33,10.03
956.00,9.83
959.67,9.56
963.33,8.98
967.00,8.71
970.67,9.46
974.33,11.11
978.00,12.77
981.67,13.21
985.33,13.65
989.00,13.20
992.67,11.13
996.33,8.49
1000.00,7.44
1001.00,8.25
1006.10,9.13
1011.21,9.17
1016.31,8.82
1021.41,8.18
1026.51,7.31
1031.62,7.36
1036.72,9.29
1041.82,11.50
1046.92,11.46
1052.03,9.52
1057.13,8.12
1062.23,7.88
1067.33,7.54
1072.44,6.64
1077.54,5.74
1082.64,5.05
1087.74,4.73
1092.85,5.13
1097.95,5.85
1103.05,6.22
1108.15,6.22
1113.26,5.90
1118.36,5.23
1123.46,5.00
1128.56,4.77
1133.67,4.79
1138.77,4.76
1143.87,4.41
1148.97,4.04
1154.08,3.90
1159.18,4.30
1164.28,5.60
1169.38,7.32
1174.49,7.95
1179.59,6.79
1184.69,5.20
1189.79,4.56
1194.90,4.32
1200.00,3.51
1201.00,2.36
1210.06,1.47
1219.12,1.04
1228.18,1.25
1237.24,2.30
1246.30,3.48
1255.36,3.54
1264.42,2.36
1273.48,0.95
1282.55,0.22
1291.61,0.27
1300.67,0.55
1309.73,0.56
1318.79,0.14
1327.85,-0.15
1336.91,-0.45
1345.97,-0.58
1355.03,-0.03
1364.09,0.54
1373.15,0.64
1382.21,0.61
1391.27,0.71
1400.33,0.48
1409.39,-0.55
1418.45,-1.87
1427.52,-2.40
1436.58,-1.66
1445.64,-0.26
1454.70,0.51
1463.76,0.11
1472.82,-0.46
1481.88,-0.33
1490.94,0.08
1500.00,0.32
1501.00,0.53
1510.24,0.62
1519.48,0.29
1528.72,-0.46
1537.96,-1.24
1547.20,-1.68
1556.44,-1.69
1565.69,-1.52
1574.93,-1.45
1584.17,-1.45
1593.41,-1.44
1602.65,-1.50
1611.89,-2.03
1621.13,-3.10
1630.37,-4.00
1639.61,-4.20
1648.85,-3.91
1658.09,-3.32
1667.33,-2.54
1676.57,-2.31
1685.81,-2.97
1695.06,-3.62
1704.30,-2.95
1713.54,-0.88
1722.78,1.16
1732.02,1.87
1741.26,1.40
1750.50,0.55
1759.74,-0.48
1768.98,-1.41
1778.22,-1.39
1787.46,-0.28
1796.70,0.78
1805.94,1.14
1815.19,1.57
1824.43,2.64
1833.67,3.92
1842.91,4.52
1852.15,3.87
1861.39,3.23
1870.63,2.59
1879.87,1.75
1889.11,1.43
1898.35,1.20
1907.59,0.86
1916.83,-0.05
1926.07,-1.69
1935.31,-2.70
1944.56,-1.93
1953.80,-0.60
1963.04,-0.18
1972.28,0.13
1981.52,1.25
1990.76,2.05
2000.00,1.80
2001.00,1.45
2018.22,1.47
2035.45,1.23
2052.67,0.43
2069.90,-0.37
2087.12,-0.70
2104.34,-0.44
2121.57,0.67
2138.79,2.60
2156.02,3.73
2173.24,2.64
2190.47,0.55
2207.69,-0.44
2224.91,-0.37
2242.14,-0.50
2259.36,-0.62
2276.59,-1.29
2293.81,-1.38
2311.03,-0.87
2328.26,-0.60
2345.48,-0.63
2362.71,-0.65
2379.93,-1.07
2397.16,-2.14
2414.38,-3.06
2431.60,-2.83
2448.83,-1.53
2466.05,0.18
2483.28,1.62
2500.50,1.90
2517.72,0.82
2534.95,-0.32
2552.17,-0.21
2569.40,0.78
2586.62,1.43
2603.84,1.36
2621.07,1.06
2638.29,0.62
2655.52,-0.25
2672.74,-1.00
2689.97,-0.92
2707.19,-0.18
2724.41,0.70
2741.64,1.41
2758.86,1.63
2776.09,1.86
2793.31,2.11
2810.53,2.27
2827.76,2.42
2844.98,2.58
2862.21,2.71
2879.43,2.68
2896.66,2.42
2913.88,2.19
2931.10,2.14
2948.33,1.84
2965.55,1.25
2982.78,0.84
3000.00,0.48
3001.00,-0.39
3025.99,-1.62
3050.98,-2.42
3075.98,-2.46
3100.97,-1.87
3125.96,-0.61
3150.95,1.19
3175.94,2.73
3200.93,3.25
3225.93,3.10
3250.92,2.88
3275.91,2.48
3300.90,1.72
3325.89,0.96
3350.88,0.61
3375.87,0.69
3400.87,0.78
3425.86,1.30
3450.85,1.78
3475.84,2.14
3500.83,2.57
3525.82,2.78
3550.82,2.45
3575.81,1.93
3600.80,1.70
3625.79,1.95
3650.78,2.55
3675.77,2.89
3700.77,2.31
3725.76,1.21
3750.75,0.59
3775.74,0.55
3800.73,0.40
3825.73,0.18
3850.72,0.66
3875.71,1.86
3900.70,2.79
3925.69,2.64
3950.68,1.97
3975.68,1.77
4000.67,2.05
4025.66,2.52
4050.65,3.26
4075.64,3.75
4100.63,3.54
4125.62,3.33
4150.62,2.34
4175.61,1.48
4200.60,1.08
4225.59,1.23
4250.58,1.92
4275.58,2.97
4300.57,3.85
4325.56,3.75
4350.55,2.71
4375.54,2.02
4400.53,2.47
4425.52,3.56
4450.52,4.80
4475.51,5.96
4500.50,6.70
4525.49,6.74
4550.48,6.54
4575.48,6.94
4600.47,7.66
4625.46,7.79
4650.45,7.39
4675.44,6.96
4700.43,6.34
4725.42,5.56
4750.42,5.29
4775.41,5.81
4800.40,7.09
4825.39,9.07
4850.38,9.97
4875.37,10.87
4900.37,11.48
4925.36,11.25
4950.35,11.48
4975.34,12.80
5000.33,14.64
5025.33,16.12
5050.32,16.58
5075.31,15.88
5100.30,14.68
5125.29,13.28
5150.28,11.11
5175.27,8.66
5200.27,7.31
5225.26,6.92
5250.25,6.29
5275.24,5.56
5300.23,6.14
5325.23,8.19
5350.22,10.00
5375.21,9.95
5400.20,8.27
5425.19,6.39
5450.18,5.08
5475.17,4.10
5500.17,3.43
5525.16,3.55
5550.15,4.71
5575.14,6.65
5600.13,7.58
5625.12,8.50
5650.12,9.41
5675.11,9.87
5700.10,12.37
5725.09,22.29
5750.08,51.15
5775.08,121.26
5800.07,264.07
5825.06,505.65
5850.05,846.86
5875.04,1255.88
5900.03,1676.67
5925.02,2039.87
5950.02,2273.38
5975.01,2321.34
6000.00,2168.53
6024.79,1851.80
6049.64,1446.24
6074.48,1034.45
6099.32,678.94
6124.16,410.26
6149.01,230.08
6173.85,121.94
6198.69,63.01
6223.53,33.11
6248.38,18.80
6273.22,12.46
6298.06,9.76
6322.90,8.34
6347.75,7.79
6372.59,7.23
6397.43,6.12
6422.27,5.14
6447.12,4.52
6471.96,4.04
6496.80,3.23
6521.65,2.27
6546.49,1.79
6571.33,1.89
6596.17,2.15
6621.02,2.49
6645.86,3.09
6670.70,3.55
6695.54,3.28
6720.39,2.08
6745.23,0.13
6770.07,-1.76
6794.91,-2.41
6819.76,-1.73
6844.60,-0.94
6869.44,-1.06
6894.28,-1.86
6919.13,-2.62
6943.97,-3.24
6968.81,-3.64
6993.65,-3.30
7018.50,-2.14
7043.34,-0.76
7068.18,0.12
7093.02,0.25
7117.87,0.39
7142.71,0.85
7167.55,2.01
7192.39,3.36
7217.24,4.35
7242.08,4.49
7266.92,3.21
7291.77,0.97
7316.61,-0.92
7341.45,-1.57
7366.29,-0.92
7391.14,0.15
7415.98,0.17
7440.82,-1.17
7465.66,-2.51
7490.51,-2.68
7515.35,-1.59
7540.19,0.27
7565.03,1.93
7589.88,2.27
7614.72,0.99
7639.56,-1.18
7664.40,-2.92
7689.25,-3.04
7714.09,-1.77
7738.93,-0.67
7763.77,-0.45
7788.62,-0.55
7813.46,-0.70
7838.30,-0.70
7863.14,-0.70
7887.99,-0.23
7912.83,0.11
7937.67,-0.31
7962.51,-0.63
7987.36,0.14
8012.20,1.39
8037.04,1.66
8061.89,0.64
8086.73,-0.53
8111.57,-0.98
8136.41,-1.18
8161.26,-1.65
8186.10,-1.93
8210.94,-1.55
8235.78,-1.16
8260.63,-1.63
8285.47,-2.75
8310.31,-3.52
8335.15,-3.65
8360.00,-3.60
8384.84,-3.42
8409.68,-2.96
8434.52,-2.33
8459.37,-1.56
8484.21,-0.62
8509.05,0.01
8533.89,-0.47
8558.74,-1.19
8583.58,-1.92
8608.42,-2.96
8633.26,-2.75
8658.11,-1.86
8682.95,-0.85
8707.79,0.09
8732.63,0.38
8757.48,-0.40
8782.32,-1.60
8807.16,-2.23
8832.00,-1.87
8856.85,-0.96
8881.69,-0.64
8906.53,-1.60
8931.37,-3.28
8956.22,-4.33
8981.06,-3.59
9005.90,-1.35
9030.75,0.70
9055.59,1.44
9080.43,1.34
9105.27,1.10
9130.12,0.65
9154.96,-0.16
9179.80,-1.14
9204.64,-2.17
9229.49,-3.00
9254.33,-2.86
9279.17,-1.31
9304.01,-0.37
9328.86,0.56
9353.70,1.28
9378.54,0.82
9403.38,-0.05
9428.23,-0.92
9453.07,-1.54
9477.91,-1.76
9502.75,-1.75
9527.60,-1.46
9552.44,-0.49
9577.28,0.97
9602.12,1.80
9626.97,1.23
9651.81,0.14
9676.65,0.14
9701.50,1.34
9726.34,2.25
9751.18,1.80
9776.02,0.40
9800.87,-0.77
9825.71,-1.11
9850.55,-0.95
9875.39,-0.47
9900.24,0.30
9925.08,0.60
9949.92,0.25
9974.76,0.47
9999.61,1.38
10024.45,1.46
10049.29,0.96
10074.13,0.45
10098.98,-0.31
10123.82,-0.16
10148.66,0.41
10173.50,1.05
10198.35,1.71
10223.19,1.92
10248.03,1.10
10272.87,-0.33
10297.72,-0.83
10322.56,0.52
10347.40,2.68
10372.25,3.97
10397.09,3.91
10421.93,3.21
10446.77,2.56
10471.62,2.36
10496.46,2.92
10521.30,3.83
10546.14,4.08
10570.99,3.23
10595.83,2.01
10620.67,1.85
10645.51,3.06
10670.36,4.01
10695.20,3.35
10720.04,1.65
10744.88,0.12
10769.73,-0.58
10794.57,-0.42
10819.41,-0.27
10844.25,0.54
10869.10,1.00
10893.94,0.79
10918.78,0.47
10943.62,0.61
10968.47,0.98
10993.31,1.03
11018.15,1.13
11043.00,2.02
11067.84,3.17
11092.68,3.19
11117.52,2.01
11142.37,0.89
11167.21,0.67
11192.05,0.99
11216.89,1.12
11241.74,1.06
11266.58,0.99
11291.42,0.39
11316.26,-1.03
11341.11,-2.31
11365.95,-2.16
11390.79,-0.80
11415.63,0.08
11440.48,-0.08
11465.32,0.23
11490.16,1.66
11515.00,2.62
11539.85,2.31
11564.69,2.00
11589.53,0.53
11614.37,-0.52
11639.22,-0.55
11664.06,0.00
11688.90,0.05
11713.74,-0.60
11738.59,-1.09
11763.43,-0.85
11788.27,-0.11
11813.12,0.36
11837.96,-0.12
11862.80,-1.22
11887.64,-1.58
11912.49,-0.34
11937.33,1.36
11962.17,1.63
11987.01,0.43
12011.86,-0.54
12036.70,-0.27
12061.54,0.57
12086.38,1.07
12111.23,1.09
12136.07,0.85
12160.91,0.68
12185.75,0.67
12210.60,0.61
12235.44,0.67
12260.28,0.75
12285.12,0.84
12309.97,0.77
12334.81,0.79
12359.65,1.30
12384.49,1.38
12409.34,0.34
12434.18,-0.89
12459.02,-1.47
12483.86,-1.94
12508.71,-2.60
12533.55,-2.67
12558.39,-2.12
12583.24,-1.71
12608.08,-1.56
12632.92,-1.23
12657.76,-0.77
12682.61,-0.95
12707.45,-1.85
12732.29,-2.10
12757.13,-1.09
12781.98,-0.38
12806.82,-1.07
12831.66,-2.22
12856.50,-2.65
12881.35,-2.25
12906.19,-1.73
12931.03,-1.56
12955.87,-1.30
12980.72,-0.52
13005.56,0.07
13030.40,0.66
13055.24,1.92
13080.09,2.62
13104.93,2.10
13129.77,0.71
13154.61,-0.48
13179.46,-1.01
13204.30,-0.99
13229.14,-0.75
13253.98,-0.43
13278.83,-0.05
13303.67,-0.06
13328.51,-0.71
13353.35,-1.29
13378.20,-1.22
13403.04,-0.93
13427.88,-0.84
13452.73,-0.50
13477.57,0.63
13502.41,2.05
13527.25,2.59
13552.10,2.02
13576.94,1.29
13601.78,1.31
13626.62,1.99
13651.47,2.41
13676.31,2.26
13701.15,2.19
13725.99,2.54
13750.84,2.74
13775.68,2.95
13800.52,3.30
13825.36,3.82
13850.21,4.45
13875.05,4.92
13899.89,5.04
13924.73,4.37
13949.58,2.97
13974.42,2.24
13999.26,3.24
14024.10,4.81
14048.95,4.93
14073.79,2.96
14098.63,0.11
14123.47,-1.76
14148.32,-1.94
14173.16,-1.33
14198.00,-0.59
14222.85,0.51
14247.69,1.61
14272.53,1.77
14297.37,1.01
14322.22,0.11
14347.06,-0.25
14371.90,0.41
14396.74,1.72
14421.59,2.36
14446.43,1.76
14471.27,0.83
14496.11,0.72
14520.96,0.61
14545.80,0.93
14570.64,0.76
14595.48,-0.36
14620.33,-1.77
14645.17,-2.60
14670.01,-2.70
14694.85,-2.43
14719.70,-1.88
14744.54,-1.03
14769.38,-0.21
14794.22,0.15
14819.07,0.19
14843.91,0.21
14868.75,0.06
14893.59,-0.03
14918.44,0.77
14943.28,2.07
14968.12,2.20
14992.97,0.66
15017.81,-1.08
15042.65,-1.66
15067.49,-1.39
15092.34,-1.27
15117.18,-1.50
15142.02,-1.78
15166.86,-1.90
15191.71,-1.67
15216.55,-1.23
15241.39,-1.07
15266.23,-0.91
15291.08,-0.77
15315.92,-0.87
15340.76,-1.51
15365.60,-2.36
15390.45,-2.54
15415.29,-1.91
15440.13,-1.22
15464.97,-0.79
15489.82,-0.43
15514.66,-0.27
15539.50,-0.48
15564.34,-0.62
15589.19,-0.41
15614.03,-0.17
15638.87,0.44
15663.71,1.95
15688.56,3.16
15713.40,2.38
15738.24,0.07
15763.08,-1.75
15787.93,-1.98
15812.77,-1.22
15837.61,-0.75
15862.46,-0.99
15887.30,-1.29
15912.14,-1.03
15936.98,-0.35
15961.83,0.45
15986.67,0.83
16011.51,1.22
16036.35,1.82
16061.20,2.06
16086.04,1.81
16110.88,1.33
16135.72,1.06
16160.57,0.97
16185.41,0.69
16210.25,0.09
16235.09,-0.61
16259.94,-1.09
16284.78,-1.24
16309.62,-1.00
16334.46,-0.22
16359.31,0.76
16384.15,1.04
16408.99,0.67
16433.84,0.63
16458.68,1.03
16483.52,1.03
16508.36,0.51
16533.21,0.14
16558.05,0.31
16582.89,0.49
16607.73,-0.19
16632.58,-1.36
16657.42,-1.68
16682.26,-1.10
16707.10,-0.89
16731.95,-0.69
16756.79,-0.67
16781.63,-0.47
16806.47,0.00
16831.32,4.17
16856.16,4.12
16881.00,3.99
16905.84,4.05
16930.69,3.93
16955.53,3.12
16980.37,2.06
17005.21,1.58
17030.06,1.91
17054.90,3.12
17079.74,4.98
17104.58,6.34
17129.43,6.41
17154.27,5.63
17179.11,4.35
17203.96,2.57
17228.80,0.89
17253.64,0.00
17278.48,0.06
17303.33,1.00
17328.17,2.27
17353.01,3.20
17377.85,3.67
17402.70,3.87
17427.54,4.05
17452.38,4.14
17477.22,4.23
17502.07,4.08
17526.91,3.34
17551.75,2.50
17576.59,2.37
17601.44,3.25
17626.28,4.20
17651.12,4.20
17675.96,3.80
17700.81,3.80
17725.65,3.42
17750.49,2.00
17775.33,0.48
17800.18,0.00
17825.02,0.00
17849.86,0.09
17874.71,0.00
17899.55,0.00
17924.39,0.00
17949.23,0.00
17974.07,0.00
17998.92,0.00
18023.76,0.00
18048.60,0.00
18073.45,0.00
18098.29,0.00
18123.13,0.00
18147.97,0.00
18172.82,0.00
18197.66,0.00
18222.50,0.00
18247.34,0.00
18272.19,0.00
18297.03,0.00
18321.87,0.00
18346.71,0.00
18371.56,0.00
18396.40,0.00
18421.24,0.00
18446.08,0.00
18470.93,0.00
18495.77,0.00
18520.61,0.00
18545.46,0.00
