Size (bp),Intensity
0.58,2658.74
1.00,2305.41
2.00,1589.17
2.42,893.52
2.84,439.27
3.26,221.17
3.68,139.47
4.10,113.39
4.52,105.11
4.94,102.12
5.36,101.30
5.79,100.48
6.21,98.17
6.63,94.06
7.05,87.36
7.47,77.58
7.89,65.28
8.31,52.00
8.73,39.95
9.15,31.36
9.57,26.76
9.99,24.93
10.41,24.72
10.83,25.40
11.25,25.62
11.67,24.28
12.09,21.90
12.52,19.03
12.94,15.48
13.36,12.17
13.78,11.32
14.20,10.48
14.62,10.12
15.04,9.81
15.46,9.37
15.88,9.46
16.30,9.92
16.72,10.02
17.14,10.07
17.56,11.02
17.98,12.71
18.40,13.48
18.82,12.26
19.24,9.93
19.67,8.01
20.09,7.40
20.51,8.41
20.93,10.48
21.35,12.08
21.77,12.15
22.19,11.56
22.61,10.97
23.03,9.26
23.45,7.16
23.87,5.33
24.29,4.82
24.71,5.88
25.13,8.13
25.55,10.41
25.97,11.05
26.39,9.86
26.82,8.32
27.24,7.50
27.66,7.35
28.08,7.10
28.50,6.25
28.92,5.44
29.34,5.58
29.76,6.36
30.18,6.77
30.60,6.45
31.02,6.20
31.44,5.94
31.86,6.06
32.28,7.13
32.70,8.72
33.12,10.34
33.55,11.19
33.97,10.48
34.39,8.73
34.81,7.20
35.23,6.67
35.65,7.08
36.07,7.65
36.49,7.87
36.91,8.12
37.33,8.90
37.75,10.08
38.17,11.09
38.59,11.59
39.01,12.08
39.43,12.75
39.85,13.42
40.27,15.26
40.70,16.09
41.12,15.31
41.54,14.06
41.96,13.64
42.38,14.25
42.80,15.35
43.22,16.40
43.64,17.17
44.06,17.32
44.48,16.31
44.90,14.48
45.32,12.98
45.74,12.13
46.16,11.34
46.58,10.48
47.00,10.23
47.42,10.35
47.85,10.03
48.27,9.71
48.69,8.52
49.11,7.93
49.53,7.68
49.95,6.99
50.37,6.33
50.79,6.41
51.21,7.08
51.63,7.94
52.05,8.37
52.47,7.49
52.89,5.60
53.31,4.15
53.73,3.47
54.15,2.66
54.58,1.72
55.00,1.54
55.42,2.21
55.84,3.25
56.26,3.75
56.68,4.25
57.10,4.64
57.52,4.11
57.94,3.22
58.36,2.89
58.78,3.53
59.20,4.69
59.62,5.33
60.04,4.89
60.46,4.06
60.88,3.83
61.30,4.08
61.73,4.22
62.15,4.27
62.57,4.34
62.99,4.34
63.41,4.22
63.83,3.97
64.25,3.89
64.67,4.19
65.09,4.50
65.51,5.64
65.93,6.26
66.35,5.61
66.77,4.19
67.19,3.19
67.61,3.29
68.03,4.17
68.45,4.84
68.88,4.86
69.30,4.53
69.72,4.23
70.14,4.34
70.56,4.98
70.98,5.37
71.40,4.75
71.82,3.57
72.24,2.64
72.66,1.85
73.08,1.39
73.50,0.92
73.92,0.12
74.34,0.23
74.76,1.79
75.18,4.18
75.61,5.84
76.03,6.07
76.45,5.71
76.87,5.63
77.29,5.52
77.71,4.76
78.13,3.77
78.55,3.16
78.97,2.52
79.39,1.49
79.81,0.51
80.23,0.21
80.65,0.99
81.07,2.62
81.49,3.40
81.91,4.19
82.33,5.01
82.76,5.16
83.18,5.07
83.60,4.65
84.02,3.97
84.44,3.63
84.86,3.36
85.28,2.58
85.70,1.91
86.12,1.83
86.54,1.69
86.96,1.30
87.38,1.24
87.80,1.74
88.22,2.56
88.64,3.30
89.06,3.67
89.48,3.95
89.91,4.44
90.33,4.70
90.75,4.95
91.17,5.42
91.59,6.05
92.01,6.66
92.43,6.59
92.85,5.47
93.27,4.05
93.69,3.58
94.11,3.97
94.53,4.25
94.95,4.19
95.37,3.76
95.79,2.84
96.21,2.06
96.64,1.86
97.06,1.25
97.48,-0.22
97.90,-1.30
98.32,-1.36
98.74,-1.31
99.16,-1.25
99.58,-1.25
100.00,-0.71
101.00,0.39
101.52,1.15
102.04,1.09
102.56,0.65
103.08,0.37
103.61,0.21
104.13,0.46
104.65,1.67
105.17,3.15
105.69,3.53
106.21,2.62
106.73,1.37
107.25,0.40
107.77,-0.04
108.29,0.27
108.82,0.90
109.34,1.01
109.86,1.12
110.38,1.23
110.90,1.96
111.42,2.91
111.94,2.85
112.46,1.38
112.98,-0.57
113.51,-1.81
114.03,-1.84
114.55,-1.07
115.07,-0.23
115.59,0.29
116.11,0.35
116.63,-0.29
117.15,-1.81
117.67,-3.64
118.19,-4.76
118.72,-4.71
119.24,-3.93
119.76,-3.54
120.28,-3.15
120.80,-2.43
121.32,-1.36
121.84,-0.29
122.36,-0.08
122.88,-0.28
123.41,0.25
123.93,1.25
124.45,1.38
124.97,0.61
125.49,0.25
126.01,0.77
126.53,1.56
127.05,2.05
127.57,1.81
128.09,0.92
128.62,0.14
129.14,0.06
129.66,0.41
130.18,0.52
130.70,0.64
131.22,0.67
131.74,0.53
132.26,0.30
132.78,0.36
133.31,0.72
133.83,0.72
134.35,0.20
134.87,-0.22
135.39,-0.35
135.91,-0.61
136.43,-1.00
136.95,-0.89
137.47,-0.24
137.99,0.12
138.52,-0.36
139.04,-1.29
139.56,-1.99
140.08,-2.19
140.60,-2.06
141.12,-1.93
141.64,-1.29
142.16,-0.44
142.68,0.04
143.21,-0.22
143.73,-0.49
144.25,0.10
144.77,1.06
145.29,1.41
145.81,1.04
146.33,0.38
146.85,0.04
147.37,0.30
147.89,0.59
148.42,0.05
148.94,-0.81
149.46,-0.81
149.98,-0.13
150.50,0.13
151.02,0.05
151.54,-0.04
152.06,-0.04
152.58,-0.09
153.11,-0.64
153.63,-1.03
154.15,-0.35
154.67,0.93
155.19,1.52
155.71,1.02
156.23,0.43
156.75,0.63
157.27,1.13
157.79,1.22
158.32,1.07
158.84,0.85
159.36,0.61
159.88,0.72
160.40,1.24
160.92,1.75
161.44,2.30
161.96,2.87
162.48,3.44
163.01,5.49
163.53,8.05
164.05,10.19
164.57,11.25
165.09,11.38
165.61,11.12
166.13,11.05
166.65,11.30
167.17,11.97
167.69,13.50
168.22,15.47
168.74,16.45
169.26,16.08
169.78,15.56
170.30,16.40
170.82,19.03
171.34,22.53
171.86,26.45
172.38,28.96
172.91,31.47
173.43,37.17
173.95,41.34
174.47,42.14
174.99,39.79
175.51,35.89
176.03,31.54
176.55,27.37
177.07,24.40
177.59,23.03
178.12,21.95
178.64,20.15
179.16,18.45
179.68,17.53
180.20,16.46
180.72,14.57
181.24,12.46
181.76,10.48
182.28,8.62
182.81,8.15
183.33,7.68
183.85,8.05
184.37,8.70
184.89,8.73
185.41,8.43
185.93,8.26
186.45,8.29
186.97,8.58
187.49,9.08
188.02,9.33
188.54,9.08
189.06,8.74
189.58,8.88
190.10,9.83
190.62,11.55
191.14,13.58
191.66,15.44
192.18,17.08
192.71,18.79
193.23,19.61
193.75,20.44
194.27,21.39
194.79,21.41
195.31,21.14
195.83,21.36
196.35,22.25
196.87,23.28
197.39,23.44
197.92,22.36
198.44,20.95
198.96,19.80
199.48,18.33
200.00,16.67
201.00,16.23
201.59,17.64
202.17,19.75
202.76,21.34
203.34,22.53
203.93,24.02
204.51,25.02
205.10,26.03
205.69,28.08
206.27,29.26
206.86,29.25
207.44,28.56
208.03,27.89
208.62,27.58
209.20,27.53
209.79,27.29
210.37,26.53
210.96,25.20
211.54,23.36
212.13,21.40
212.72,20.34
213.30,20.68
213.89,21.64
214.47,22.01
215.06,21.14
215.64,19.07
216.23,17.89
216.82,16.71
217.40,15.03
217.99,14.32
218.57,14.32
219.16,14.28
219.75,13.77
220.33,13.34
220.92,13.32
221.50,13.35
222.09,12.91
222.67,12.01
223.26,11.60
223.85,12.51
224.43,14.07
225.02,15.13
225.60,15.35
226.19,15.24
226.78,15.44
227.36,15.94
227.95,16.15
228.53,16.37
229.12,16.71
229.70,17.07
230.29,17.15
230.88,16.86
231.46,16.90
232.05,17.68
232.63,18.66
233.22,19.33
233.80,19.86
234.39,20.43
234.98,21.11
235.56,22.22
236.15,23.77
236.73,25.72
237.32,28.32
237.91,30.86
238.49,32.13
239.08,32.58
239.66,33.64
240.25,34.25
240.83,34.86
241.42,34.59
242.01,33.09
242.59,32.30
243.18,33.23
243.76,35.55
244.35,38.19
244.93,39.86
245.52,40.61
246.11,42.62
246.69,47.55
247.28,53.94
247.86,59.03
248.45,61.50
249.04,61.47
249.62,59.90
250.21,58.58
250.79,59.04
251.38,61.89
251.96,64.57
252.55,67.25
253.14,75.04
253.72,84.68
254.31,95.40
254.89,106.76
255.48,118.31
256.07,128.76
256.65,136.37
257.24,140.32
257.82,141.18
258.41,140.20
258.99,138.48
259.58,136.92
260.17,137.13
260.75,141.42
261.34,151.01
261.92,166.12
262.51,187.85
263.09,217.93
263.68,237.33
264.27,256.73
264.85,303.55
265.44,356.84
266.02,412.80
266.61,467.05
267.20,517.96
267.78,567.29
268.37,618.27
268.95,672.58
269.54,727.52
270.12,778.30
270.71,825.47
271.30,878.69
271.88,954.43
272.47,1072.41
273.05,1248.00
273.64,1479.21
274.22,1742.68
274.81,2006.91
275.40,2127.67
275.98,2248.43
276.57,2458.77
277.15,2645.43
277.74,2829.03
278.33,3037.53
278.91,3304.27
279.50,3676.27
280.08,4224.17
280.67,5028.19
281.25,6141.08
281.84,7601.02
282.43,9554.81
283.01,12374.11
283.60,16467.23
284.18,21678.83
284.77,26781.33
285.36,29806.70
285.94,29241.86
286.53,25143.12
287.11,22132.65
287.70,19122.17
288.28,13182.73
288.87,8543.30
289.46,5406.08
290.04,3439.44
290.63,2243.47
291.21,1527.81
291.80,1116.22
292.38,899.97
292.97,799.70
293.56,755.39
294.14,729.37
294.73,704.36
295.31,675.62
295.90,643.37
296.49,607.79
297.07,567.25
297.66,519.42
298.24,464.85
298.83,436.69
299.41,408.53
300.00,355.90
301.00,309.37
301.70,269.56
302.39,237.13
303.09,212.52
303.79,195.01
304.49,182.45
305.18,172.45
305.88,163.73
306.58,155.90
307.27,148.68
307.97,141.52
308.67,133.60
309.37,124.63
310.06,115.73
310.76,108.87
311.46,105.51
312.15,105.54
312.85,107.62
313.55,109.00
314.25,110.38
314.94,112.82
315.64,113.86
316.34,112.88
317.04,110.21
317.73,106.35
318.43,101.25
319.13,94.69
319.82,86.43
320.52,76.72
321.22,67.14
321.92,59.39
322.61,53.41
323.31,48.08
324.01,43.07
324.70,38.88
325.40,36.16
326.10,34.95
326.80,34.28
327.49,33.57
328.19,32.86
328.89,30.22
329.58,26.92
330.28,23.94
330.98,21.67
331.68,19.92
332.37,18.84
333.07,18.67
333.77,18.72
334.46,18.01
335.16,16.25
335.86,13.67
336.56,10.80
337.25,8.25
337.95,6.73
338.65,6.25
339.35,5.44
340.04,3.50
340.74,1.78
341.44,1.68
342.13,1.58
342.83,2.11
343.53,2.00
344.23,1.21
344.92,0.45
345.62,-0.24
346.32,-0.99
347.01,-1.46
347.71,-1.44
348.41,-1.36
349.11,-1.44
349.80,-0.93
350.50,0.70
351.20,2.38
351.89,2.92
352.59,2.51
353.29,1.79
353.99,0.90
354.68,0.46
355.38,0.75
356.08,1.04
356.77,1.51
357.47,0.70
358.17,-0.60
358.87,-1.40
359.56,-1.82
360.26,-1.76
360.96,-1.06
361.65,-0.62
362.35,-1.07
363.05,-1.59
363.75,-1.26
364.44,-0.21
365.14,0.82
365.84,1.24
366.54,1.10
367.23,0.79
367.93,0.54
368.63,0.46
369.32,0.43
370.02,0.41
370.72,0.10
371.42,-0.40
372.11,-0.65
372.81,-0.12
373.51,1.39
374.20,3.22
374.90,4.38
375.60,4.49
376.30,3.52
376.99,1.58
377.69,-0.17
378.39,-0.14
379.08,0.95
379.78,0.73
380.48,-0.56
381.18,-0.53
381.87,0.91
382.57,1.87
383.27,1.94
383.96,2.01
384.66,2.05
385.36,1.97
386.06,1.47
386.75,0.48
387.45,-0.63
388.15,-1.08
388.85,-0.80
389.54,-0.78
390.24,-1.50
390.94,-2.27
391.63,-2.28
392.33,-1.22
393.03,0.40
393.73,1.37
394.42,1.18
395.12,0.48
395.82,0.06
396.51,0.42
397.21,0.92
397.91,1.43
398.61,2.23
399.30,2.24
400.00,1.67
401.00,0.70
401.72,-0.32
402.45,-0.83
403.17,-0.96
403.89,-1.18
404.61,-1.37
405.34,-1.18
406.06,-0.79
406.78,-0.38
407.50,0.13
408.23,0.55
408.95,0.62
409.67,0.44
410.39,0.30
411.12,0.46
411.84,0.77
412.56,0.67
413.28,0.57
414.01,-0.37
414.73,-1.37
415.45,-1.74
416.18,-1.75
416.90,-2.15
417.62,-2.78
418.34,-2.51
419.07,-1.14
419.79,0.47
420.51,1.88
421.23,3.02
421.96,3.38
422.68,2.99
423.40,2.75
424.12,2.80
424.85,2.47
425.57,1.85
426.29,1.55
427.01,1.63
427.74,1.70
428.46,1.75
429.18,1.34
429.91,1.25
430.63,1.88
431.35,2.16
432.07,1.83
432.80,1.92
433.52,2.25
434.24,1.98
434.96,1.75
435.69,2.08
436.41,2.23
437.13,2.28
437.85,2.98
438.58,3.64
439.30,3.23
440.02,2.56
440.74,2.83
441.47,3.19
442.19,3.56
442.91,3.42
443.64,2.09
444.36,0.54
445.08,-0.16
445.80,0.20
446.53,1.03
447.25,1.62
447.97,1.60
448.69,0.71
449.42,-0.83
450.14,-1.88
450.86,-1.79
451.58,-1.40
452.31,-1.27
453.03,-0.91
453.75,-0.29
454.47,0.13
455.20,0.56
455.92,0.91
456.64,1.27
457.36,1.90
458.09,1.91
458.81,1.35
459.53,0.98
460.26,1.10
460.98,0.68
461.70,-0.42
462.42,-0.46
463.15,0.83
463.87,1.54
464.59,0.63
465.31,-0.79
466.04,-1.40
466.76,-1.01
467.48,0.10
468.20,1.63
468.93,2.54
469.65,2.00
470.37,1.48
471.09,0.96
471.82,0.49
472.54,0.33
473.26,0.11
473.99,0.11
474.71,0.16
475.43,-0.48
476.15,-1.53
476.88,-1.73
477.60,-0.80
478.32,0.33
479.04,0.63
479.77,-0.06
480.49,-0.62
481.21,0.00
481.93,1.17
482.66,1.70
483.38,1.72
484.10,1.86
484.82,1.88
485.55,1.91
486.27,1.44
486.99,0.72
487.72,0.37
488.44,0.90
489.16,2.23
489.88,3.51
490.61,3.87
491.33,3.22
492.05,2.14
492.77,1.17
493.50,0.34
494.22,-0.49
494.94,-1.08
495.66,-0.94
496.39,-0.14
497.11,0.45
497.83,0.10
498.55,-1.04
499.28,-1.46
500.00,-1.88
501.00,-1.35
502.01,0.07
503.02,0.88
504.03,0.67
505.04,0.29
506.05,0.54
507.06,1.12
508.07,1.07
509.08,0.29
510.09,-0.29
511.10,-0.16
512.11,-0.07
513.12,-0.90
514.13,-2.06
515.14,-2.13
516.15,-1.27
517.16,-0.84
518.17,-1.07
519.18,-1.34
520.19,-1.57
521.20,-1.81
522.21,-2.89
523.22,-3.98
524.23,-4.57
525.24,-5.15
526.26,-5.65
527.27,-5.12
528.28,-3.81
529.29,-2.90
530.30,-2.42
531.31,-1.79
532.32,-1.09
533.33,-0.51
534.34,-0.39
535.35,-0.98
536.36,-1.62
537.37,-1.64
538.38,-1.62
539.39,-2.23
540.40,-2.67
541.41,-3.11
542.42,-3.72
543.43,-3.59
544.44,-2.20
545.45,-0.14
546.46,0.95
547.47,0.62
548.48,0.08
549.49,0.14
550.50,0.37
551.51,0.16
552.52,-0.58
553.53,-1.36
554.54,-1.38
555.55,-0.58
556.56,-0.25
557.57,-0.86
558.58,-1.10
559.59,-0.36
560.60,0.07
561.61,0.50
562.62,1.00
563.63,1.17
564.64,1.20
565.65,1.54
566.66,2.06
567.67,2.07
568.68,1.59
569.69,1.04
570.70,0.53
571.71,0.07
572.72,-0.04
573.73,0.28
574.74,0.35
575.76,-0.51
576.77,-1.66
577.78,-1.69
578.79,-0.29
579.80,1.62
580.81,2.27
581.82,2.91
582.83,3.01
583.84,2.02
584.85,0.37
585.86,-1.51
586.87,-2.85
587.88,-2.92
588.89,-1.52
589.90,0.44
590.91,1.47
591.92,1.16
592.93,0.41
593.94,-0.39
594.95,-1.29
595.96,-1.65
596.97,-1.25
597.98,-1.07
598.99,-1.56
600.00,-2.09
601.00,-2.21
602.18,-2.34
603.36,-2.04
604.54,-0.89
605.71,0.38
606.89,0.64
608.07,0.00
609.25,-0.83
610.43,-1.75
611.61,-2.97
612.79,-3.83
613.96,-3.28
615.14,-1.81
616.32,-1.06
617.50,-1.47
618.68,-2.09
619.86,-2.23
621.04,-2.06
622.21,-2.00
623.39,-2.03
624.57,-2.06
625.75,-2.09
626.93,-2.49
628.11,-3.24
629.29,-3.80
630.46,-3.47
631.64,-2.17
632.82,-1.00
634.00,-0.74
635.18,-0.39
636.36,0.87
637.54,2.22
638.71,2.67
639.89,2.15
641.07,0.97
642.25,-0.32
643.43,-0.79
644.61,0.12
645.79,2.03
646.96,3.92
648.14,4.64
649.32,4.16
650.50,3.68
651.68,2.17
652.86,1.73
654.04,2.38
655.21,2.84
656.39,2.43
657.57,1.63
658.75,1.12
659.93,1.16
661.11,1.66
662.29,2.27
663.46,2.82
664.64,3.32
665.82,3.48
667.00,3.13
668.18,2.83
669.36,3.02
670.54,3.65
671.71,4.76
672.89,5.49
674.07,6.22
675.25,7.26
676.43,7.26
677.61,6.76
678.79,6.52
679.96,6.52
681.14,6.35
682.32,5.86
683.50,5.44
684.68,5.74
685.86,6.85
687.04,8.03
688.21,8.47
689.39,7.97
690.57,7.19
691.75,7.00
692.93,7.42
694.11,7.72
695.29,7.50
696.46,7.29
697.64,7.08
698.82,7.25
700.00,8.55
701.00,10.25
702.98,11.30
704.96,11.91
706.94,12.78
708.92,13.48
710.90,13.09
712.88,11.83
714.86,10.73
716.84,10.26
718.82,10.14
720.80,10.23
722.78,10.69
724.76,11.00
726.74,10.33
728.72,9.12
730.70,8.75
732.68,9.08
734.66,9.40
736.64,10.17
738.62,10.32
740.60,9.53
742.58,7.79
744.56,5.62
746.54,3.70
748.52,2.87
750.50,3.67
752.48,5.17
754.46,5.64
756.44,4.74
758.42,3.93
760.40,4.38
762.38,5.48
764.36,5.93
766.34,5.92
768.32,6.23
770.30,6.34
772.28,5.85
774.26,5.37
776.24,3.70
778.22,2.57
780.20,3.05
782.18,4.77
784.16,6.05
786.14,6.18
788.12,5.87
790.10,5.66
792.08,5.76
794.06,6.29
796.04,6.90
798.02,6.96
800.00,6.13
801.00,4.66
803.36,3.55
805.71,3.50
808.07,4.07
810.43,4.75
812.79,5.16
815.14,5.57
817.50,6.08
819.86,5.78
822.21,4.97
824.57,4.44
826.93,4.77
829.29,5.94
831.64,7.19
834.00,7.64
836.36,7.39
838.71,6.89
841.07,5.75
843.43,3.75
845.79,1.95
848.14,1.44
850.50,2.08
852.86,3.19
855.21,4.20
857.57,4.50
859.93,4.02
862.29,3.53
864.64,1.61
867.00,0.12
869.36,0.06
871.71,0.69
874.07,1.11
876.43,1.56
878.79,1.86
881.14,1.40
883.50,0.79
885.86,0.70
888.21,0.65
890.57,0.39
892.93,0.47
895.29,1.04
897.64,1.56
900.00,1.89
901.00,2.29
904.67,2.28
908.33,1.37
912.00,0.87
915.67,0.37
919.33,-0.01
923.00,-0.19
926.67,-0.65
930.33,-1.22
934.00,-1.62
937.67,-1.52
941.33,-1.07
945.00,-1.12
948.67,-2.16
952.33,-3.10
956.00,-2.48
959.67,-0.65
963.33,0.74
967.00,0.73
970.67,-0.31
974.33,-1.17
978.00,-1.18
981.67,-0.84
985.33,-0.78
989.00,-0.71
992.67,-0.68
996.33,-0.57
1000.00,-0.64
1001.00,-0.93
1006.10,-1.17
1011.21,-1.50
1016.31,-2.26
1021.41,-2.92
1026.51,-2.76
1031.62,-2.15
1036.72,-1.79
1041.82,-1.86
1046.92,-2.15
1052.03,-2.04
1057.13,-0.86
1062.23,0.97
1067.33,2.35
1072.44,2.58
1077.54,2.05
1082.64,1.52
1087.74,-0.06
1092.85,-0.87
1097.95,-0.55
1103.05,0.56
1108.15,2.00
1113.26,3.06
1118.36,3.25
1123.46,2.69
1128.56,1.64
1133.67,0.47
1138.77,-0.24
1143.87,-0.42
1148.97,-0.72
1154.08,-1.50
1159.18,-2.58
1164.28,-3.02
1169.38,-1.81
1174.49,0.12
1179.59,0.49
1184.69,0.86
1189.79,0.12
1194.90,-1.00
1200.00,-1.61
1201.00,-1.68
1210.06,-2.11
1219.12,-3.18
1228.18,-3.74
1237.24,-3.19
1246.30,-2.24
1255.36,-1.82
1264.42,-2.33
1273.48,-3.19
1282.55,-3.15
1291.61,-2.05
1300.67,-1.19
1309.73,-1.15
1318.79,-1.16
1327.85,-0.93
1336.91,-0.91
1345.97,-0.90
1355.03,-0.82
1364.09,-0.18
1373.15,0.18
1382.21,-0.76
1391.27,-2.16
1400.33,-2.49
1409.39,-1.59
1418.45,-0.42
1427.52,0.46
1436.58,1.07
1445.64,1.26
1454.70,0.76
1463.76,-0.26
1472.82,-1.14
1481.88,-1.25
1490.94,-0.82
1500.00,-0.65
1501.00,-0.76
1510.24,-0.78
1519.48,-0.79
1528.72,-1.01
1537.96,-1.57
1547.20,-1.98
1556.44,-1.84
1565.69,-1.36
1574.93,-1.01
1584.17,-0.73
1593.41,0.11
1602.65,1.45
1611.89,2.60
1621.13,3.19
1630.37,3.09
1639.61,2.53
1648.85,2.45
1658.09,3.08
1667.33,3.22
1676.57,2.23
1685.81,1.03
1695.06,0.84
1704.30,0.64
1713.54,0.91
1722.78,1.00
1732.02,0.81
1741.26,0.84
1750.50,1.00
1759.74,1.08
1768.98,1.51
1778.22,2.23
1787.46,2.62
1796.70,2.79
1805.94,2.84
1815.19,2.48
1824.43,2.25
1833.67,2.61
1842.91,2.84
1852.15,2.68
1861.39,2.76
1870.63,2.73
1879.87,1.84
1889.11,1.34
1898.35,0.84
1907.59,0.90
1916.83,1.93
1926.07,3.29
1935.31,4.53
1944.56,5.17
1953.80,5.09
1963.04,4.52
1972.28,3.48
1981.52,2.06
1990.76,1.01
2000.00,1.04
2001.00,1.77
2018.22,2.18
2035.45,2.16
2052.67,2.44
2069.90,3.01
2087.12,3.27
2104.34,3.05
2121.57,2.83
2138.79,2.62
2156.02,2.41
2173.24,2.58
2190.47,2.77
2207.69,2.51
2224.91,1.88
2242.14,1.72
2259.36,2.13
2276.59,2.07
2293.81,1.64
2311.03,2.22
2328.26,3.83
2345.48,5.03
2362.71,4.82
2379.93,3.42
2397.16,2.28
2414.38,2.58
2431.60,3.44
2448.83,3.22
2466.05,2.67
2483.28,2.13
2500.50,1.16
2517.72,0.22
2534.95,-0.56
2552.17,-0.16
2569.40,1.52
2586.62,3.14
2603.84,3.64
2621.07,3.09
2638.29,2.42
2655.52,2.47
2672.74,2.81
2689.97,2.08
2707.19,0.17
2724.41,-1.22
2741.64,-1.06
2758.86,-0.05
2776.09,1.14
2793.31,2.58
2810.53,3.22
2827.76,3.86
2844.98,3.95
2862.21,3.03
2879.43,2.68
2896.66,3.59
2913.88,4.92
2931.10,5.93
2948.33,6.26
2965.55,5.70
2982.78,4.62
3000.00,3.64
3001.00,3.18
3025.99,3.35
3050.98,3.60
3075.98,3.43
3100.97,3.26
3125.96,3.65
3150.95,4.27
3175.94,4.57
3200.93,4.63
3225.93,4.70
3250.92,5.04
3275.91,5.43
3300.90,5.30
3325.89,4.44
3350.88,3.66
3375.87,3.99
3400.87,4.96
3425.86,5.46
3450.85,5.30
3475.84,4.63
3500.83,4.10
3525.82,4.83
3550.82,6.11
3575.81,5.90
3600.80,4.24
3625.79,3.18
3650.78,3.71
3675.77,4.97
3700.77,5.32
3725.76,5.68
3750.75,5.35
3775.74,4.30
3800.73,2.93
3825.73,1.61
3850.72,0.92
3875.71,1.28
3900.70,2.61
3925.69,4.10
3950.68,4.45
3975.68,3.44
4000.67,2.47
4025.66,2.49
4050.65,2.70
4075.64,2.63
4100.63,3.02
4125.62,4.25
4150.62,5.53
4175.61,6.03
4200.60,5.88
4225.59,5.73
4250.58,5.06
4275.58,4.48
4300.57,4.31
4325.56,4.23
4350.55,3.83
4375.54,3.47
4400.53,3.45
4425.52,3.15
4450.52,2.26
4475.51,1.59
4500.50,1.81
4525.49,2.36
4550.48,2.28
4575.48,1.68
4600.47,1.42
4625.46,1.65
4650.45,2.09
4675.44,2.71
4700.43,3.26
4725.42,3.28
4750.42,3.31
4775.41,3.12
4800.40,2.93
4825.39,2.35
4850.38,1.76
4875.37,2.29
4900.37,3.68
4925.36,4.62
4950.35,5.23
4975.34,6.51
5000.33,8.13
5025.33,8.88
5050.32,8.05
5075.31,5.99
5100.30,4.15
5125.29,3.54
5150.28,3.49
5175.27,3.40
5200.27,3.91
5225.26,4.65
5250.25,5.38
5275.24,6.99
5300.23,7.80
5325.23,7.55
5350.22,6.61
5375.21,5.68
5400.20,5.41
5425.19,5.82
5450.18,5.83
5475.17,4.69
5500.17,3.21
5525.16,2.68
5550.15,3.28
5575.14,4.27
5600.13,5.22
5625.12,6.67
5650.12,10.22
5675.11,19.49
5700.10,41.31
5725.09,64.47
5750.08,87.63
5775.08,176.75
5800.07,329.30
5825.06,559.95
5850.05,870.53
5875.04,1244.16
5900.03,1642.80
5925.02,2012.86
5950.02,2296.84
5975.01,2447.30
6000.00,2439.22
6024.79,2276.36
6049.64,1992.00
6074.48,1641.51
6099.32,1281.98
6124.16,953.33
6149.01,676.94
6173.85,461.40
6198.69,304.58
6223.53,250.79
6248.38,197.01
6273.22,127.37
6298.06,85.03
6322.90,60.36
6347.75,45.50
6372.59,36.14
6397.43,31.20
6422.27,29.90
6447.12,30.45
6471.96,31.24
6496.80,31.99
6521.65,33.31
6546.49,35.07
6571.33,35.88
6596.17,34.82
6621.02,32.73
6645.86,30.74
6670.70,28.85
6695.54,26.88
6720.39,26.01
6745.23,25.13
6770.07,23.35
6794.91,21.04
6819.76,18.46
6844.60,16.16
6869.44,14.38
6894.28,13.15
6919.13,12.21
6943.97,11.01
6968.81,9.35
6993.65,7.80
7018.50,6.55
7043.34,5.13
7068.18,4.01
7093.02,4.08
7117.87,4.49
7142.71,3.72
7167.55,2.13
7192.39,0.75
7217.24,0.21
7242.08,-0.32
7266.92,-1.12
7291.77,-1.34
7316.61,-1.07
7341.45,-0.73
7366.29,-0.76
7391.14,-1.31
7415.98,-1.75
7440.82,-1.56
7465.66,-0.98
7490.51,-0.17
7515.35,0.69
7540.19,0.95
7565.03,0.30
7589.88,-1.03
7614.72,-2.25
7639.56,-2.28
7664.40,-1.14
7689.25,-0.05
7714.09,0.22
7738.93,-0.02
7763.77,-0.25
7788.62,-0.86
7813.46,-0.84
7838.30,-0.20
7863.14,0.25
7887.99,-0.00
7912.83,-0.94
7937.67,-2.25
7962.51,-3.11
7987.36,-2.96
8012.20,-2.67
8037.04,-3.47
8061.89,-5.05
8086.73,-6.19
8111.57,-6.11
8136.41,-4.80
8161.26,-2.83
8186.10,-1.08
8210.94,-0.38
8235.78,-0.57
8260.63,-0.76
8285.47,-1.01
8310.31,-0.16
8335.15,0.93
8360.00,0.78
8384.84,-0.71
8409.68,-2.33
8434.52,-3.27
8459.37,-3.59
8484.21,-3.43
8509.05,-2.90
8533.89,-2.49
8558.74,-2.46
8583.58,-2.37
8608.42,-2.20
8633.26,-2.54
8658.11,-3.31
8682.95,-3.63
8707.79,-3.20
8732.63,-2.92
8757.48,-2.65
8782.32,-2.70
8807.16,-3.17
8832.00,-3.35
8856.85,-3.03
8881.69,-2.57
8906.53,-2.31
8931.37,-2.15
8956.22,-2.07
8981.06,-2.23
9005.90,-2.51
9030.75,-2.53
9055.59,-2.12
9080.43,-1.70
9105.27,-2.01
9130.12,-3.17
9154.96,-4.03
9179.80,-3.47
9204.64,-2.08
9229.49,-1.83
9254.33,-1.59
9279.17,-2.48
9304.01,-3.34
9328.86,-3.14
9353.70,-2.64
9378.54,-2.84
9403.38,-3.17
9428.23,-2.56
9453.07,-1.58
9477.91,-1.50
9502.75,-2.34
9527.60,-3.36
9552.44,-4.03
9577.28,-4.11
9602.12,-3.86
9626.97,-3.81
9651.81,-4.02
9676.65,-4.08
9701.50,-3.63
9726.34,-3.26
9751.18,-2.89
9776.02,-2.82
9800.87,-3.75
9825.71,-4.74
9850.55,-4.66
9875.39,-3.66
9900.24,-2.88
9925.08,-3.07
9949.92,-3.96
9974.76,-4.61
9999.61,-4.16
10024.45,-2.77
10049.29,-1.43
10074.13,-0.68
10098.98,-0.46
10123.82,-0.57
10148.66,-0.99
10173.50,-2.01
10198.35,-3.48
10223.19,-4.02
10248.03,-4.57
10272.87,-4.63
10297.72,-3.71
10322.56,-2.62
10347.40,-2.43
10372.25,-3.31
10397.09,-4.27
10421.93,-4.49
10446.77,-3.96
10471.62,-3.03
10496.46,-2.20
10521.30,-2.23
10546.14,-3.21
10570.99,-4.20
10595.83,-4.48
10620.67,-4.42
10645.51,-4.53
10670.36,-4.73
10695.20,-4.76
10720.04,-4.78
10744.88,-4.79
10769.73,-5.28
10794.57,-6.07
10819.41,-6.34
10844.25,-5.54
10869.10,-4.17
10893.94,-3.39
10918.78,-3.90
10943.62,-5.00
10968.47,-5.37
10993.31,-5.03
11018.15,-4.97
11043.00,-5.00
11067.84,-4.06
11092.68,-2.58
11117.52,-1.97
11142.37,-2.59
11167.21,-3.94
11192.05,-5.09
11216.89,-4.94
11241.74,-4.31
11266.58,-3.69
11291.42,-2.77
11316.26,-2.74
11341.11,-3.31
11365.95,-3.95
11390.79,-3.75
11415.63,-2.60
11440.48,-1.49
11465.32,-1.07
11490.16,-1.13
11515.00,-1.21
11539.85,-1.10
11564.69,-1.11
11589.53,-1.49
11614.37,-1.85
11639.22,-1.88
11664.06,-1.90
11688.90,-2.21
11713.74,-2.47
11738.59,-2.31
11763.43,-2.15
11788.27,-1.40
11813.12,-1.11
11837.96,-1.88
11862.80,-3.18
11887.64,-4.01
11912.49,-4.10
11937.33,-3.96
11962.17,-3.88
11987.01,-3.46
12011.86,-2.27
12036.70,-0.71
12061.54,0.62
12086.38,1.37
12111.23,0.91
12136.07,-0.81
12160.91,-2.34
12185.75,-2.48
12210.60,-1.79
12235.44,-1.56
12260.28,-1.34
12285.12,-1.28
12309.97,-1.12
12334.81,-0.73
12359.65,-0.62
12384.49,-0.95
12409.34,-0.96
12434.18,-0.29
12459.02,0.36
12483.86,0.33
12508.71,-0.18
12533.55,-0.51
12558.39,-0.45
12583.24,-0.58
12608.08,-1.25
12632.92,-1.86
12657.76,-1.70
12682.61,-1.00
12707.45,-0.61
12732.29,-0.76
12757.13,-0.92
12781.98,-1.36
12806.82,-1.20
12831.66,-0.25
12856.50,1.27
12881.35,2.61
12906.19,3.19
12931.03,3.19
12955.87,2.70
12980.72,1.39
13005.56,-0.42
13030.40,-1.56
13055.24,-1.36
13080.09,-0.22
13104.93,1.03
13129.77,1.39
13154.61,0.26
13179.46,-1.50
13204.30,-2.50
13229.14,-2.51
13253.98,-2.52
13278.83,-2.16
13303.67,-1.57
13328.51,-0.86
13353.35,-0.66
13378.20,-0.89
13403.04,-0.74
13427.88,0.03
13452.73,0.76
13477.57,0.98
13502.41,1.01
13527.25,1.32
13552.10,1.76
13576.94,1.88
13601.78,1.54
13626.62,1.12
13651.47,0.96
13676.31,0.42
13701.15,-0.99
13725.99,-1.55
13750.84,-2.12
13775.68,-1.98
13800.52,-1.34
13825.36,-1.09
13850.21,-1.01
13875.05,-1.20
13899.89,-2.46
13924.73,-4.17
13949.58,-4.26
13974.42,-2.51
13999.26,-0.90
14024.10,-0.53
14048.95,-0.74
14073.79,-1.21
14098.63,-2.15
14123.47,-2.92
14148.32,-2.62
14173.16,-1.73
14198.00,-1.42
14222.85,-1.57
14247.69,-1.71
14272.53,-1.73
14297.37,-1.47
14322.22,-1.75
14347.06,-2.72
14371.90,-3.72
14396.74,-3.93
14421.59,-3.15
14446.43,-2.50
14471.27,-2.97
14496.11,-3.62
14520.96,-3.34
14545.80,-2.72
14570.64,-2.44
14595.48,-2.01
14620.33,-1.28
14645.17,-1.08
14670.01,-1.75
14694.85,-2.39
14719.70,-2.25
14744.54,-2.06
14769.38,-1.86
14794.22,-2.19
14819.07,-3.24
14843.91,-4.06
14868.75,-4.13
14893.59,-3.74
14918.44,-3.35
14943.28,-3.17
14968.12,-3.38
14992.97,-3.97
15017.81,-4.22
15042.65,-3.22
15067.49,-1.74
15092.34,-1.38
15117.18,-1.93
15142.02,-1.88
15166.86,-0.93
15191.71,-0.27
15216.55,-1.02
15241.39,-1.87
15266.23,-2.72
15291.08,-3.76
15315.92,-3.27
15340.76,-1.93
15365.60,-0.74
15390.45,-0.54
15415.29,-1.82
15440.13,-3.76
15464.97,-4.77
15489.82,-4.55
15514.66,-3.80
15539.50,-2.95
15564.34,-2.27
15589.19,-2.12
15614.03,-2.51
15638.87,-3.27
15663.71,-4.20
15688.56,-4.99
15713.40,-5.18
15738.24,-4.63
15763.08,-4.07
15787.93,-1.74
15812.77,0.27
15837.61,0.57
15862.46,-0.49
15887.30,-1.71
15912.14,-2.39
15936.98,-2.21
15961.83,-1.28
15986.67,-0.43
16011.51,-0.70
16036.35,-1.79
16061.20,-2.29
16086.04,-1.51
16110.88,-0.17
16135.72,0.32
16160.57,-1.04
16185.41,-3.19
16210.25,-3.75
16235.09,-3.03
16259.94,-2.31
16284.78,-0.73
16309.62,-0.25
16334.46,-0.48
16359.31,-1.08
16384.15,-2.37
16408.99,-4.19
16433.84,-5.11
16458.68,-4.02
16483.52,-1.52
16508.36,0.76
16533.21,1.39
16558.05,-0.02
16582.89,-2.14
16607.73,-3.44
16632.58,-3.70
16657.42,-3.19
16682.26,-2.25
16707.10,-1.82
16731.95,-1.96
16756.79,-2.10
16781.63,-2.14
16806.47,-1.46
16831.32,-0.47
16856.16,0.37
16881.00,0.70
16905.84,0.03
16930.69,-1.29
16955.53,-1.82
16980.37,-1.07
17005.21,-0.51
17030.06,-1.35
17054.90,-2.94
17079.74,-4.35
17104.58,-5.37
17129.43,-5.66
17154.27,-5.30
17179.11,-5.12
17203.96,-4.87
17228.80,-4.27
17253.64,-3.68
17278.48,-2.52
17303.33,-2.87
17328.17,-3.90
17353.01,-3.88
17377.85,-2.87
17402.70,-2.07
17427.54,-1.84
17452.38,-1.77
17477.22,-1.79
17502.07,-1.85
17526.91,-1.87
17551.75,-2.17
17576.59,-3.01
17601.44,-4.01
17626.28,-4.71
17651.12,-4.71
17675.96,-3.43
17700.81,-1.32
17725.65,-0.68
17750.49,-0.04
17775.33,-0.36
17800.18,-1.54
17825.02,-2.73
17849.86,-3.43
17874.71,-3.50
17899.55,-3.08
17924.39,-2.51
17949.23,-2.11
17974.07,-1.97
17998.92,-2.23
18023.76,-2.89
18048.60,-3.47
18073.45,-3.58
18098.29,-3.11
18123.13,-2.02
18147.97,-0.72
18172.82,0.00
18197.66,5.01
18222.50,4.51
18247.34,4.34
18272.19,4.17
18297.03,4.50
18321.87,5.09
18346.71,4.61
18371.56,2.75
18396.40,1.13
18421.24,1.19
18446.08,2.15
18470.93,2.29
18495.77,1.73
18520.61,1.60
18545.46,1.89
