Size (bp),Intensity
0.58,1227.26
1.00,1162.25
2.00,875.47
2.42,532.02
2.84,271.85
3.26,130.22
3.68,71.16
4.10,61.04
4.52,50.93
4.94,45.21
5.36,44.58
5.79,44.42
6.21,42.32
6.63,39.06
7.05,36.25
7.47,33.24
7.89,28.85
8.31,23.82
8.73,19.45
9.15,15.89
9.57,12.74
9.99,10.17
10.41,8.91
10.83,9.18
11.25,9.65
11.67,10.13
12.09,10.65
12.52,10.20
12.94,8.74
13.36,6.43
13.78,4.04
14.20,2.56
14.62,1.94
15.04,1.30
15.46,0.43
15.88,0.27
16.30,1.74
16.72,4.38
17.14,6.65
17.56,7.52
17.98,7.11
18.40,6.58
18.82,6.04
19.24,4.70
19.67,3.42
20.09,2.46
20.51,1.76
20.93,1.12
21.35,0.64
21.77,0.63
22.19,0.71
22.61,0.09
23.03,-0.80
23.45,-0.51
23.87,1.15
24.29,2.68
24.71,2.86
25.13,1.85
25.55,1.15
25.97,0.45
26.39,-0.53
26.82,-0.50
27.24,0.02
27.66,-0.35
28.08,-1.55
28.50,-1.81
28.92,-0.54
29.34,0.87
29.76,1.36
30.18,0.99
30.60,0.00
31.02,-1.24
31.44,-2.28
31.86,-2.84
32.28,-2.60
32.70,-2.04
33.12,-1.48
33.55,-0.36
33.97,-0.16
34.39,-0.21
34.81,0.48
35.23,1.73
35.65,2.92
36.07,3.97
36.49,4.84
36.91,5.12
37.33,4.83
37.75,4.46
38.17,4.20
38.59,4.14
39.01,4.64
39.43,5.33
39.85,5.26
40.27,5.18
40.70,4.31
41.12,4.03
41.54,4.82
41.96,5.65
42.38,5.61
42.80,5.06
43.22,4.80
43.64,5.12
44.06,6.25
44.48,7.89
44.90,9.02
45.32,9.49
45.74,9.94
46.16,10.47
46.58,11.68
47.00,13.34
47.42,14.99
47.85,20.84
48.27,27.19
48.69,30.66
49.11,29.76
49.53,25.98
49.95,21.35
50.37,17.05
50.79,14.17
51.21,13.08
51.63,13.13
52.05,13.79
52.47,15.13
52.89,17.25
53.31,20.05
53.73,23.58
54.15,25.48
54.58,27.37
55.00,29.86
55.42,30.30
55.84,30.18
56.26,31.15
56.68,32.81
57.10,33.67
57.52,33.27
57.94,32.01
58.36,29.90
58.78,26.86
59.20,23.48
59.62,20.62
60.04,18.39
60.46,16.21
60.88,14.33
61.30,13.95
61.73,13.57
62.15,13.37
62.57,12.64
62.99,11.74
63.41,11.65
63.83,12.12
64.25,12.25
64.67,11.77
65.09,10.64
65.51,8.73
65.93,6.74
66.35,6.10
66.77,7.31
67.19,8.66
67.61,8.24
68.03,6.60
68.45,6.15
68.88,5.70
69.30,5.97
69.72,6.16
70.14,5.46
70.56,4.35
70.98,3.78
71.40,4.28
71.82,5.51
72.24,6.32
72.66,6.08
73.08,5.19
73.50,4.09
73.92,2.84
74.34,2.39
74.76,4.03
75.18,7.02
75.61,7.85
76.03,8.67
76.45,7.84
76.87,6.58
77.29,6.65
77.71,6.82
78.13,5.91
78.55,5.18
78.97,5.35
79.39,5.12
79.81,4.42
80.23,4.71
80.65,5.65
81.07,5.76
81.49,5.27
81.91,5.33
82.33,5.98
82.76,6.06
83.18,6.14
83.60,5.19
84.02,4.00
84.44,3.87
84.86,4.65
85.28,5.36
85.70,5.47
86.12,5.09
86.54,4.73
86.96,4.92
87.38,5.69
87.80,6.52
88.22,6.40
88.64,4.94
89.06,3.18
89.48,2.21
89.91,2.10
90.33,1.98
90.75,1.95
91.17,2.29
91.59,3.37
92.01,4.29
92.43,3.78
92.85,2.50
93.27,2.20
93.69,3.18
94.11,4.52
94.53,5.46
94.95,6.04
95.37,6.86
95.79,8.11
96.21,8.80
96.64,8.01
97.06,7.25
97.48,6.50
97.90,5.67
98.32,5.91
98.74,6.81
99.16,7.59
99.58,7.45
100.00,6.74
101.00,6.40
101.52,6.22
102.04,5.63
102.56,5.04
103.08,4.95
103.61,5.34
104.13,6.19
104.65,7.47
105.17,8.92
105.69,9.48
106.21,10.04
106.73,10.38
107.25,9.71
107.77,8.46
108.29,7.23
108.82,6.11
109.34,5.32
109.86,5.78
110.38,7.65
110.90,9.39
111.42,9.68
111.94,9.28
112.46,9.56
112.98,10.05
113.51,9.10
114.03,6.84
114.55,6.00
115.07,5.17
115.59,5.06
116.11,5.85
116.63,6.82
117.15,7.81
117.67,8.47
118.19,8.54
118.72,8.18
119.24,7.29
119.76,5.80
120.28,4.71
120.80,5.17
121.32,6.84
121.84,8.31
122.36,8.49
122.88,7.54
123.41,7.07
123.93,6.61
124.45,6.55
124.97,7.24
125.49,7.92
126.01,8.06
126.53,7.92
127.05,7.69
127.57,6.82
128.09,5.40
128.62,4.86
129.14,5.82
129.66,7.14
130.18,7.69
130.70,7.35
131.22,6.71
131.74,6.78
132.26,7.25
132.78,7.73
133.31,8.22
133.83,7.21
134.35,5.62
134.87,4.94
135.39,5.57
135.91,6.94
136.43,7.96
136.95,7.95
137.47,7.69
137.99,8.18
138.52,9.28
139.04,10.39
139.56,10.94
140.08,10.41
140.60,9.77
141.12,9.12
141.64,8.01
142.16,7.52
142.68,7.40
143.21,7.40
143.73,7.50
144.25,7.82
144.77,8.51
145.29,9.54
145.81,10.84
146.33,12.50
146.85,14.04
147.37,14.26
147.89,13.03
148.42,11.72
148.94,11.35
149.46,11.45
149.98,11.56
150.50,11.56
151.02,11.33
151.54,11.52
152.06,12.46
152.58,13.59
153.11,14.16
153.63,14.32
154.15,14.86
154.67,16.14
155.19,18.22
155.71,21.02
156.23,23.84
156.75,25.52
157.27,25.44
157.79,24.09
158.32,23.34
158.84,22.59
159.36,22.05
159.88,22.50
160.40,22.54
160.92,21.14
161.44,19.33
161.96,18.66
162.48,19.27
163.01,20.29
163.53,20.98
164.05,21.05
164.57,20.63
165.09,20.26
165.61,20.17
166.13,19.89
166.65,19.26
167.17,19.21
167.69,19.15
168.22,20.14
168.74,21.18
169.26,21.24
169.78,21.07
170.30,21.83
170.82,23.32
171.34,24.48
171.86,24.95
172.38,25.58
172.91,27.15
173.43,29.26
173.95,30.95
174.47,31.80
174.99,32.27
175.51,33.10
176.03,33.71
176.55,34.33
177.07,35.36
177.59,36.15
178.12,37.17
178.64,38.50
179.16,40.17
179.68,42.66
180.20,45.85
180.72,48.98
181.24,51.89
181.76,55.04
182.28,58.32
182.81,60.93
183.33,62.78
183.85,65.01
184.37,68.10
184.89,69.57
185.41,71.03
185.93,72.80
186.45,73.69
186.97,74.60
187.49,75.89
188.02,77.42
188.54,79.55
189.06,82.74
189.58,86.33
190.10,89.22
190.62,91.40
191.14,93.28
191.66,95.04
192.18,97.05
192.71,99.71
193.23,102.88
193.75,104.18
194.27,105.48
194.79,106.77
195.31,108.12
195.83,111.34
196.35,116.01
196.87,120.36
197.39,123.52
197.92,126.10
198.44,129.31
198.96,133.80
199.48,139.08
200.00,144.13
201.00,148.58
201.59,152.69
202.17,156.80
202.76,161.35
203.34,163.92
203.93,166.48
204.51,171.86
205.10,177.62
205.69,184.20
206.27,191.19
206.86,197.21
207.44,201.46
208.03,204.95
208.62,209.20
209.20,214.35
209.79,219.54
210.37,224.40
210.96,229.05
211.54,233.49
212.13,238.18
212.72,244.42
213.30,248.49
213.89,252.56
214.47,260.74
215.06,267.04
215.64,271.71
216.23,276.36
216.82,282.49
217.40,290.63
217.99,299.81
218.57,308.64
219.16,316.69
219.75,324.05
220.33,330.92
220.92,337.51
221.50,343.63
222.09,349.04
222.67,354.54
223.26,357.89
223.85,361.23
224.43,369.21
225.02,377.93
225.60,386.85
226.19,395.23
226.78,402.93
227.36,411.29
227.95,421.50
228.53,432.72
229.12,444.02
229.70,456.26
230.29,469.84
230.88,483.36
231.46,496.24
232.05,509.52
232.63,522.98
233.22,528.69
233.80,534.41
234.39,542.78
234.98,549.60
235.56,556.37
236.15,563.06
236.73,569.19
237.32,575.05
237.91,581.92
238.49,590.95
239.08,601.86
239.66,613.63
240.25,625.71
240.83,637.33
241.42,647.83
242.01,657.60
242.59,666.65
243.18,670.58
243.76,674.50
244.35,681.86
244.93,690.10
245.52,699.14
246.11,707.70
246.69,715.93
247.28,725.70
247.86,737.68
248.45,750.53
249.04,763.52
249.62,777.09
250.21,790.43
250.79,801.36
251.38,808.50
251.96,811.87
252.55,812.42
253.14,812.49
253.72,812.56
254.31,814.74
254.89,819.27
255.48,825.07
256.07,831.31
256.65,837.58
257.24,843.16
257.82,847.18
258.41,849.47
258.99,850.18
259.58,849.24
260.17,847.58
260.75,847.34
261.34,849.72
261.92,854.09
262.51,859.87
263.09,863.51
263.68,867.14
264.27,875.80
264.85,885.45
265.44,895.06
266.02,903.45
266.61,910.49
267.20,916.34
267.78,920.31
268.37,921.99
268.95,922.07
269.54,920.95
270.12,918.23
270.71,914.81
271.30,913.02
271.88,913.81
272.47,916.03
273.05,917.22
273.64,918.41
274.22,920.77
274.81,923.96
275.40,928.47
275.98,933.20
276.57,936.93
277.15,939.92
277.74,943.17
278.33,946.78
278.91,949.47
279.50,950.21
280.08,950.42
280.67,952.70
281.25,957.83
281.84,964.79
282.43,972.95
283.01,977.95
283.60,982.94
284.18,995.13
284.77,1008.21
285.36,1020.17
285.94,1029.60
286.53,1035.57
287.11,1036.98
287.70,1032.78
288.28,1023.96
288.87,1014.26
289.46,1007.34
290.04,1004.06
290.63,1003.36
291.21,1004.38
291.80,1006.71
292.38,1009.50
292.97,1010.56
293.56,1011.63
294.14,1012.74
294.73,1013.46
295.31,1014.72
295.90,1016.78
296.49,1019.82
297.07,1024.48
297.66,1029.98
298.24,1034.02
298.83,1036.23
299.41,1038.82
300.00,1043.51
301.00,1049.71
301.70,1055.69
302.39,1060.98
303.09,1063.97
303.79,1066.97
304.49,1075.03
305.18,1084.41
305.88,1092.67
306.58,1097.94
307.27,1100.21
307.97,1100.63
308.67,1100.39
309.37,1100.23
310.06,1100.44
310.76,1100.44
311.46,1099.14
312.15,1096.26
312.85,1092.32
313.55,1086.65
314.25,1078.25
314.94,1072.86
315.64,1067.48
316.34,1055.35
317.04,1043.23
317.73,1033.20
318.43,1025.95
319.13,1019.96
319.82,1014.21
320.52,1009.96
321.22,1008.50
321.92,1008.86
322.61,1008.96
323.31,1007.71
324.01,1005.36
324.70,1002.07
325.40,997.19
326.10,990.48
326.80,986.86
327.49,983.23
328.19,977.49
328.89,974.16
329.58,972.40
330.28,970.27
330.98,966.80
331.68,963.82
332.37,963.53
333.07,965.19
333.77,967.13
334.46,969.66
335.16,973.68
335.86,979.14
336.56,985.57
337.25,992.26
337.95,998.57
338.65,1001.43
339.35,1004.28
340.04,1008.96
340.74,1011.91
341.44,1012.53
342.13,1009.94
342.83,1004.10
343.53,997.27
344.23,991.92
344.92,987.89
345.62,984.00
346.32,980.20
347.01,976.95
347.71,974.88
348.41,975.07
349.11,978.31
349.80,984.00
350.50,987.29
351.20,990.58
351.89,996.27
352.59,999.15
353.29,998.15
353.99,994.28
354.68,989.54
355.38,984.73
356.08,979.20
356.77,972.66
357.47,965.55
358.17,957.73
358.87,949.25
359.56,941.34
360.26,934.58
360.96,928.49
361.65,923.31
362.35,921.52
363.05,919.74
363.75,917.58
364.44,916.02
365.14,914.95
365.84,915.03
366.54,916.15
367.23,917.02
367.93,917.06
368.63,917.27
369.32,918.58
370.02,919.93
370.72,919.48
371.42,917.14
372.11,914.02
372.81,911.18
373.51,910.08
374.20,910.87
374.90,911.67
375.60,915.08
376.30,918.95
376.99,923.40
377.69,929.03
378.39,934.27
379.08,936.54
379.78,935.95
380.48,934.74
381.18,934.21
381.87,934.49
382.57,934.86
383.27,934.27
383.96,933.24
384.66,932.99
385.36,932.65
386.06,931.21
386.75,929.77
387.45,923.24
388.15,914.29
388.85,905.11
389.54,897.46
390.24,892.01
390.94,888.95
391.63,889.08
392.33,892.74
393.03,898.32
393.73,903.92
394.42,909.47
395.12,915.47
395.82,921.04
396.51,924.70
397.21,925.86
397.91,925.39
398.61,924.92
399.30,923.04
400.00,921.57
401.00,920.98
401.72,920.02
402.45,917.19
403.17,912.89
403.89,908.39
404.61,903.94
405.34,898.91
406.06,892.64
406.78,884.80
407.50,875.63
408.23,865.19
408.95,853.49
409.67,841.91
410.39,837.04
411.12,832.17
411.84,824.05
412.56,816.12
413.28,807.83
414.01,799.71
414.73,792.57
415.45,786.26
416.18,779.34
416.90,771.02
417.62,762.44
418.34,754.95
419.07,748.34
419.79,742.32
420.51,737.82
421.23,735.82
421.96,735.42
422.68,734.79
423.40,734.16
424.12,731.16
424.85,728.48
425.57,727.77
426.29,728.22
427.01,728.63
427.74,728.65
428.46,728.33
429.18,727.78
429.91,726.85
430.63,725.54
431.35,724.86
432.07,725.47
432.80,726.79
433.52,728.50
434.24,731.30
434.96,733.33
435.69,735.36
436.41,739.05
437.13,740.28
437.85,738.87
438.58,736.13
439.30,732.52
440.02,727.76
440.74,722.20
441.47,716.61
442.19,710.88
442.91,704.96
443.64,700.27
444.36,697.43
445.08,694.84
445.80,691.79
446.53,690.00
447.25,690.25
447.97,690.50
448.69,692.10
449.42,693.15
450.14,692.75
450.86,690.82
451.58,688.63
452.31,687.64
453.03,687.16
453.75,685.41
454.47,681.79
455.20,676.73
455.92,671.25
456.64,666.36
457.36,661.45
458.09,655.29
458.81,649.27
459.53,647.62
460.26,645.97
460.98,645.45
461.70,645.89
462.42,646.03
463.15,644.68
463.87,641.35
464.59,637.73
465.31,635.25
466.04,632.91
466.76,629.49
467.48,625.67
468.20,622.25
468.93,618.44
469.65,613.48
470.37,608.31
471.09,604.30
471.82,602.82
472.54,601.35
473.26,598.45
473.99,595.25
474.71,591.94
475.43,588.65
476.15,585.96
476.88,584.18
477.60,582.09
478.32,578.71
479.04,574.87
479.77,571.58
480.49,568.69
481.21,565.68
481.93,562.56
482.66,560.29
483.38,559.72
484.10,559.85
484.82,559.97
485.55,559.37
486.27,557.56
486.99,556.03
487.72,556.29
488.44,557.90
489.16,559.33
489.88,559.97
490.61,560.04
491.33,559.40
492.05,557.83
492.77,554.92
493.50,549.87
494.22,543.12
494.94,537.31
495.66,534.39
496.39,533.95
497.11,533.51
497.83,532.67
498.55,530.97
499.28,528.30
500.00,524.46
501.00,519.53
502.01,514.06
503.02,509.03
504.03,505.51
505.04,503.32
506.05,501.33
507.06,499.31
508.07,498.01
509.08,497.26
510.09,495.72
511.10,492.42
512.11,490.21
513.12,487.99
514.13,483.67
515.14,479.78
516.15,475.55
517.16,470.44
518.17,465.03
519.18,460.01
520.19,455.52
521.20,451.82
522.21,449.65
523.22,448.78
524.23,447.60
525.24,444.91
526.26,441.09
527.27,437.09
528.28,435.09
529.29,433.10
530.30,428.48
531.31,422.92
532.32,416.83
533.33,411.22
534.34,407.04
535.35,403.71
536.36,400.06
537.37,396.75
538.38,395.35
539.39,395.35
540.40,394.78
541.41,393.07
542.42,391.62
543.43,391.82
544.44,393.26
545.45,393.66
546.46,394.05
547.47,393.07
548.48,391.25
549.49,390.00
550.50,389.32
551.51,388.12
552.52,386.01
553.53,383.92
554.54,382.91
555.55,382.90
556.56,383.01
557.57,382.59
558.58,381.71
559.59,381.19
560.60,381.59
561.61,382.17
562.62,382.10
563.63,382.02
564.64,380.76
565.65,378.25
566.66,374.91
567.67,371.46
568.68,368.07
569.69,365.07
570.70,363.17
571.71,361.77
572.72,359.34
573.73,355.73
574.74,351.95
575.76,348.58
576.77,345.88
577.78,343.89
578.79,341.81
579.80,340.38
580.81,338.94
581.82,336.26
582.83,335.31
583.84,335.45
584.85,334.64
585.86,332.52
586.87,330.56
587.88,329.52
588.89,328.77
589.90,328.09
590.91,327.51
591.92,325.83
592.93,322.16
593.94,317.85
594.95,314.43
595.96,311.70
596.97,310.20
597.98,308.69
598.99,305.15
600.00,302.07
601.00,300.49
602.18,300.02
603.36,299.98
604.54,300.29
605.71,300.88
606.89,301.38
608.07,301.68
609.25,302.26
610.43,303.78
611.61,305.79
612.79,306.85
613.96,306.29
615.14,304.70
616.32,303.94
617.50,303.18
618.68,302.31
619.86,301.18
621.04,298.22
622.21,293.47
623.39,288.59
624.57,284.37
625.75,280.38
626.93,276.57
628.11,273.46
629.29,271.00
630.46,268.89
631.64,267.30
632.82,266.17
634.00,264.59
635.18,261.78
636.36,260.18
637.54,258.58
638.71,256.56
639.89,255.62
641.07,254.72
642.25,253.41
643.43,251.32
644.61,248.31
645.79,245.30
646.96,242.77
648.14,239.82
649.32,236.39
650.50,233.80
651.68,232.16
652.86,230.37
654.04,228.03
655.21,225.41
656.39,224.37
657.57,223.33
658.75,223.01
659.93,224.31
661.11,225.56
662.29,225.76
663.46,225.57
664.64,225.50
665.82,224.46
667.00,221.63
668.18,217.96
669.36,214.80
670.54,212.38
671.71,210.02
672.89,207.26
674.07,204.72
675.25,203.08
676.43,202.42
677.61,201.76
678.79,199.96
679.96,197.97
681.14,196.53
682.32,196.10
683.50,195.92
684.68,194.30
685.86,190.99
687.04,188.05
688.21,187.06
689.39,186.92
690.57,186.05
691.75,184.83
692.93,184.15
694.11,183.30
695.29,181.16
696.46,179.57
697.64,177.98
698.82,175.04
700.00,173.19
701.00,172.13
702.98,171.69
704.96,172.17
706.94,172.75
708.92,171.75
710.90,168.66
712.88,164.65
714.86,161.36
716.84,159.55
718.82,158.43
720.80,156.60
722.78,154.17
724.76,152.55
726.74,152.20
728.72,151.85
730.70,150.92
732.68,150.03
734.66,150.05
736.64,149.98
738.62,148.75
740.60,147.28
742.58,146.80
744.56,147.16
746.54,147.45
748.52,147.17
750.50,146.28
752.48,144.40
754.46,141.67
756.44,139.67
758.42,139.43
760.40,139.51
762.38,139.59
764.36,138.26
766.34,136.00
768.32,134.80
770.30,134.65
772.28,134.50
774.26,134.97
776.24,136.39
778.22,137.57
780.20,138.29
782.18,138.94
784.16,138.38
786.14,135.99
788.12,133.23
790.10,131.31
792.08,130.08
794.06,129.61
796.04,129.13
798.02,128.17
800.00,127.06
801.00,126.02
803.36,125.21
805.71,124.78
808.07,124.66
810.43,124.10
812.79,122.71
815.14,121.12
817.50,119.38
819.86,116.88
822.21,114.16
824.57,112.31
826.93,111.30
829.29,110.50
831.64,110.21
834.00,109.91
836.36,109.93
838.71,110.38
841.07,110.57
843.43,110.32
845.79,109.79
848.14,109.05
850.50,108.43
852.86,108.04
855.21,107.01
857.57,104.75
859.93,101.86
862.29,99.06
864.64,96.73
867.00,95.30
869.36,94.49
871.71,93.97
874.07,93.45
876.43,91.92
878.79,90.36
881.14,89.21
883.50,88.87
885.86,89.40
888.21,89.69
890.57,88.26
892.93,85.29
895.29,82.64
897.64,81.70
900.00,82.13
901.00,82.70
904.67,82.78
908.33,82.44
912.00,81.76
915.67,81.23
919.33,80.70
923.00,79.45
926.67,78.14
930.33,76.47
934.00,74.49
937.67,72.97
941.33,72.28
945.00,71.85
948.67,71.23
952.33,71.04
956.00,71.67
959.67,72.18
963.33,71.57
967.00,69.84
970.67,67.60
974.33,65.55
978.00,64.73
981.67,63.92
985.33,62.36
989.00,60.94
992.67,60.24
996.33,60.53
1000.00,61.64
1001.00,63.05
1006.10,63.57
1011.21,62.46
1016.31,60.45
1021.41,58.47
1026.51,56.74
1031.62,55.26
1036.72,54.19
1041.82,53.61
1046.92,53.37
1052.03,53.13
1057.13,52.37
1062.23,51.65
1067.33,51.24
1072.44,51.04
1077.54,51.17
1082.64,51.26
1087.74,50.61
1092.85,49.48
1097.95,48.70
1103.05,48.28
1108.15,47.39
1113.26,45.60
1118.36,43.49
1123.46,41.83
1128.56,40.74
1133.67,40.38
1138.77,40.02
1143.87,39.40
1148.97,38.83
1154.08,38.52
1159.18,38.26
1164.28,37.60
1169.38,36.91
1174.49,36.72
1179.59,36.59
1184.69,35.73
1189.79,34.66
1194.90,34.35
1200.00,34.51
1201.00,34.06
1210.06,32.45
1219.12,30.02
1228.18,29.02
1237.24,28.02
1246.30,27.59
1255.36,28.02
1264.42,27.64
1273.48,26.44
1282.55,25.84
1291.61,26.06
1300.67,25.86
1309.73,24.77
1318.79,23.65
1327.85,23.08
1336.91,22.58
1345.97,21.65
1355.03,20.76
1364.09,20.41
1373.15,19.91
1382.21,19.61
1391.27,19.32
1400.33,19.96
1409.39,21.17
1418.45,20.74
1427.52,19.23
1436.58,18.84
1445.64,19.20
1454.70,18.60
1463.76,17.35
1472.82,16.98
1481.88,17.66
1490.94,18.19
1500.00,17.82
1501.00,17.14
1510.24,16.95
1519.48,16.89
1528.72,16.58
1537.96,16.27
1547.20,15.57
1556.44,15.61
1565.69,16.36
1574.93,17.66
1584.17,19.29
1593.41,20.36
1602.65,20.36
1611.89,19.91
1621.13,19.37
1630.37,18.47
1639.61,17.43
1648.85,16.82
1658.09,16.47
1667.33,15.52
1676.57,14.07
1685.81,13.82
1695.06,13.57
1704.30,14.57
1713.54,15.63
1722.78,15.58
1732.02,14.91
1741.26,14.51
1750.50,14.80
1759.74,15.40
1768.98,15.59
1778.22,15.18
1787.46,14.20
1796.70,12.83
1805.94,12.09
1815.19,12.87
1824.43,14.69
1833.67,16.19
1842.91,16.34
1852.15,16.48
1861.39,15.65
1870.63,14.74
1879.87,14.90
1889.11,16.26
1898.35,17.56
1907.59,17.56
1916.83,16.46
1926.07,15.42
1935.31,15.40
1944.56,16.53
1953.80,17.99
1963.04,18.67
1972.28,18.28
1981.52,17.85
1990.76,18.27
2000.00,18.62
2001.00,18.98
2018.22,19.22
2035.45,19.24
2052.67,19.11
2069.90,18.48
2087.12,17.59
2104.34,17.31
2121.57,17.85
2138.79,18.24
2156.02,17.92
2173.24,17.42
2190.47,16.94
2207.69,16.32
2224.91,15.98
2242.14,16.13
2259.36,16.47
2276.59,16.60
2293.81,16.73
2311.03,16.56
2328.26,16.16
2345.48,16.04
2362.71,15.82
2379.93,14.98
2397.16,14.19
2414.38,14.07
2431.60,14.07
2448.83,14.12
2466.05,15.02
2483.28,16.33
2500.50,16.87
2517.72,16.56
2534.95,15.83
2552.17,15.08
2569.40,14.98
2586.62,14.87
2603.84,15.00
2621.07,14.99
2638.29,14.79
2655.52,14.34
2672.74,13.92
2689.97,14.00
2707.19,14.26
2724.41,14.39
2741.64,14.67
2758.86,14.80
2776.09,14.49
2793.31,14.48
2810.53,14.48
2827.76,13.10
2844.98,11.16
2862.21,11.13
2879.43,11.09
2896.66,12.81
2913.88,14.07
2931.10,13.79
2948.33,12.95
2965.55,12.55
2982.78,12.71
3000.00,13.38
3001.00,14.06
3025.99,13.94
3050.98,13.42
3075.98,13.65
3100.97,14.56
3125.96,14.78
3150.95,13.39
3175.94,11.40
3200.93,10.93
3225.93,10.46
3250.92,10.69
3275.91,11.05
3300.90,11.21
3325.89,11.29
3350.88,11.06
3375.87,10.44
3400.87,9.90
3425.86,10.18
3450.85,11.81
3475.84,13.99
3500.83,14.96
3525.82,14.04
3550.82,12.23
3575.81,11.14
3600.80,11.43
3625.79,11.81
3650.78,12.20
3675.77,12.50
3700.77,12.57
3725.76,13.02
3750.75,13.84
3775.74,14.56
3800.73,14.91
3825.73,14.76
3850.72,14.12
3875.71,13.23
3900.70,12.19
3925.69,10.80
3950.68,9.18
3975.68,8.05
4000.67,8.00
4025.66,8.85
4050.65,9.44
4075.64,10.03
4100.63,11.22
4125.62,12.04
4150.62,11.85
4175.61,10.59
4200.60,8.97
4225.59,7.49
4250.58,6.09
4275.58,5.18
4300.57,5.55
4325.56,6.85
4350.55,8.20
4375.54,9.67
4400.53,11.41
4425.52,12.52
4450.52,12.63
4475.51,12.63
4500.50,12.62
4525.49,12.75
4550.48,12.30
4575.48,11.45
4600.47,11.22
4625.46,11.64
4650.45,11.96
4675.44,12.02
4700.43,12.00
4725.42,11.67
4750.42,11.21
4775.41,11.38
4800.40,12.28
4825.39,12.78
4850.38,12.08
4875.37,10.49
4900.37,9.73
4925.36,8.97
4950.35,8.39
4975.34,8.79
5000.33,9.54
5025.33,10.31
5050.32,10.97
5075.31,11.71
5100.30,13.09
5125.29,15.04
5150.28,16.88
5175.27,18.36
5200.27,19.49
5225.26,19.81
5250.25,19.30
5275.24,18.71
5300.23,18.35
5325.23,18.25
5350.22,18.15
5375.21,18.91
5400.20,21.30
5425.19,23.90
5450.18,24.25
5475.17,21.89
5500.17,18.88
5525.16,17.31
5550.15,17.75
5575.14,20.00
5600.13,23.85
5625.12,30.01
5650.12,41.39
5675.11,62.52
5700.10,98.57
5725.09,155.20
5750.08,196.36
5775.08,237.53
5800.07,348.46
5825.06,486.41
5850.05,643.42
5875.04,806.14
5900.03,958.39
5925.02,1082.02
5950.02,1160.26
5975.01,1184.69
6000.00,1156.72
6024.79,1082.63
6049.64,971.95
6074.48,838.89
6099.32,699.42
6124.16,566.32
6149.01,506.98
6173.85,447.64
6198.69,347.81
6223.53,268.41
6248.38,208.10
6273.22,163.35
6298.06,130.50
6322.90,106.99
6347.75,90.41
6372.59,77.95
6397.43,67.53
6422.27,58.28
6447.12,49.82
6471.96,42.18
6496.80,36.11
6521.65,32.16
6546.49,29.66
6571.33,28.63
6596.17,27.60
6621.02,25.75
6645.86,24.00
6670.70,22.21
6695.54,20.28
6720.39,17.78
6745.23,14.80
6770.07,12.27
6794.91,10.71
6819.76,10.08
6844.60,10.24
6869.44,10.44
6894.28,9.96
6919.13,9.37
6943.97,9.22
6968.81,8.96
6993.65,8.88
7018.50,8.81
7043.34,9.55
7068.18,10.27
7093.02,10.01
7117.87,9.87
7142.71,10.37
7167.55,9.97
7192.39,8.29
7217.24,6.87
7242.08,6.39
7266.92,6.41
7291.77,6.62
7316.61,6.56
7341.45,6.14
7366.29,6.22
7391.14,6.85
7415.98,6.81
7440.82,6.78
7465.66,5.98
7490.51,5.79
7515.35,6.26
7540.19,6.45
7565.03,6.17
7589.88,5.77
7614.72,5.46
7639.56,5.51
7664.40,5.86
7689.25,5.93
7714.09,5.65
7738.93,5.78
7763.77,6.55
7788.62,7.11
7813.46,6.88
7838.30,6.60
7863.14,6.32
7887.99,5.97
7912.83,5.85
7937.67,5.79
7962.51,5.23
7987.36,4.00
8012.20,3.21
8037.04,3.52
8061.89,4.12
8086.73,4.58
8111.57,5.35
8136.41,6.01
8161.26,5.59
8186.10,4.16
8210.94,2.46
8235.78,1.23
8260.63,1.18
8285.47,1.14
8310.31,2.19
8335.15,3.41
8360.00,3.87
8384.84,3.76
8409.68,3.95
8434.52,4.69
8459.37,5.71
8484.21,6.70
8509.05,7.13
8533.89,6.74
8558.74,6.26
8583.58,6.65
8608.42,7.52
8633.26,7.30
8658.11,5.87
8682.95,5.32
8707.79,4.78
8732.63,4.75
8757.48,5.32
8782.32,6.40
8807.16,7.86
8832.00,8.36
8856.85,7.01
8881.69,5.31
8906.53,5.37
8931.37,6.91
8956.22,7.82
8981.06,6.93
9005.90,5.06
9030.75,3.78
9055.59,3.63
9080.43,3.99
9105.27,4.27
9130.12,4.54
9154.96,5.25
9179.80,5.46
9204.64,4.88
9229.49,4.45
9254.33,4.60
9279.17,4.68
9304.01,4.59
9328.86,4.70
9353.70,4.64
9378.54,3.97
9403.38,3.24
9428.23,3.14
9453.07,3.64
9477.91,4.49
9502.75,5.37
9527.60,5.60
9552.44,5.83
9577.28,5.67
9602.12,4.99
9626.97,3.73
9651.81,2.19
9676.65,1.47
9701.50,2.29
9726.34,3.60
9751.18,3.87
9776.02,3.08
9800.87,2.29
9825.71,2.12
9850.55,2.67
9875.39,3.56
9900.24,3.90
9925.08,3.35
9949.92,3.12
9974.76,2.89
9999.61,3.28
10024.45,3.93
10049.29,3.92
10074.13,3.19
10098.98,2.13
10123.82,1.33
10148.66,1.24
10173.50,1.33
10198.35,0.80
10223.19,-0.02
10248.03,-0.40
10272.87,-0.50
10297.72,-0.76
10322.56,-0.68
10347.40,0.14
10372.25,0.62
10397.09,1.11
10421.93,1.66
10446.77,1.85
10471.62,2.15
10496.46,2.97
10521.30,4.19
10546.14,5.34
10570.99,5.71
10595.83,4.67
10620.67,2.72
10645.51,1.35
10670.36,1.00
10695.20,1.05
10720.04,1.11
10744.88,0.85
10769.73,0.31
10794.57,0.39
10819.41,0.47
10844.25,1.77
10869.10,3.12
10893.94,3.20
10918.78,1.87
10943.62,0.25
10968.47,-0.43
10993.31,0.15
11018.15,1.64
11043.00,3.32
11067.84,4.30
11092.68,4.32
11117.52,3.80
11142.37,3.10
11167.21,2.51
11192.05,2.59
11216.89,2.97
11241.74,3.34
11266.58,3.54
11291.42,2.38
11316.26,1.00
11341.11,0.73
11365.95,1.35
11390.79,2.01
11415.63,2.68
11440.48,3.34
11465.32,3.54
11490.16,3.34
11515.00,3.25
11539.85,3.36
11564.69,3.57
11589.53,3.90
11614.37,4.25
11639.22,4.32
11664.06,4.39
11688.90,4.24
11713.74,3.79
11738.59,3.12
11763.43,2.22
11788.27,0.99
11813.12,-0.35
11837.96,-1.47
11862.80,-2.36
11887.64,-2.82
11912.49,-2.24
11937.33,-0.41
11962.17,2.00
11987.01,3.93
12011.86,4.57
12036.70,3.93
12061.54,3.33
12086.38,2.72
12111.23,1.83
12136.07,1.91
12160.91,2.67
12185.75,3.00
12210.60,2.38
12235.44,1.37
12260.28,0.87
12285.12,1.44
12309.97,2.83
12334.81,4.26
12359.65,4.98
12384.49,4.61
12409.34,3.51
12434.18,2.59
12459.02,2.26
12483.86,2.25
12508.71,2.24
12533.55,2.04
12558.39,1.40
12583.24,0.84
12608.08,1.36
12632.92,2.85
12657.76,3.95
12682.61,4.01
12707.45,3.81
12732.29,3.96
12757.13,4.12
12781.98,4.25
12806.82,4.94
12831.66,5.90
12856.50,6.07
12881.35,5.59
12906.19,5.48
12931.03,5.38
12955.87,5.58
12980.72,5.93
13005.56,6.15
13030.40,5.86
13055.24,5.18
13080.09,4.87
13104.93,5.33
13129.77,6.06
13154.61,6.38
13179.46,6.26
13204.30,6.28
13229.14,6.71
13253.98,7.27
13278.83,7.59
13303.67,7.20
13328.51,6.61
13353.35,6.02
13378.20,4.88
13403.04,4.63
13427.88,5.12
13452.73,5.91
13477.57,6.47
13502.41,5.95
13527.25,4.64
13552.10,4.16
13576.94,4.49
13601.78,3.99
13626.62,2.76
13651.47,2.36
13676.31,2.57
13701.15,2.04
13725.99,1.57
13750.84,1.11
13775.68,0.85
13800.52,1.27
13825.36,2.07
13850.21,3.08
13875.05,3.88
13899.89,4.27
13924.73,4.62
13949.58,5.14
13974.42,5.21
13999.26,4.19
14024.10,2.67
14048.95,1.87
14073.79,2.39
14098.63,3.40
14123.47,3.50
14148.32,2.97
14173.16,2.45
14198.00,1.22
14222.85,0.71
14247.69,1.17
14272.53,2.06
14297.37,2.74
14322.22,3.26
14347.06,3.85
14371.90,4.16
14396.74,3.83
14421.59,3.66
14446.43,4.65
14471.27,6.06
14496.11,6.16
14520.96,4.63
14545.80,2.76
14570.64,2.25
14595.48,1.73
14620.33,1.55
14645.17,1.55
14670.01,1.67
14694.85,2.25
14719.70,3.03
14744.54,3.40
14769.38,3.42
14794.22,3.64
14819.07,3.99
14843.91,3.88
14868.75,3.43
14893.59,3.50
14918.44,4.21
14943.28,4.30
14968.12,2.87
14992.97,1.94
15017.81,1.00
15042.65,0.66
15067.49,1.90
15092.34,2.64
15117.18,1.97
15142.02,1.54
15166.86,2.68
15191.71,4.31
15216.55,4.59
15241.39,3.89
15266.23,4.02
15291.08,4.75
15315.92,4.38
15340.76,3.24
15365.60,2.88
15390.45,3.15
15415.29,2.96
15440.13,2.77
15464.97,1.68
15489.82,1.18
15514.66,2.01
15539.50,3.55
15564.34,4.68
15589.19,4.59
15614.03,3.37
15638.87,2.19
15663.71,2.08
15688.56,2.66
15713.40,2.75
15738.24,2.34
15763.08,2.35
15787.93,2.57
15812.77,2.40
15837.61,2.27
15862.46,2.14
15887.30,2.05
15912.14,1.98
15936.98,2.28
15961.83,3.30
15986.67,4.40
16011.51,4.52
16036.35,3.17
16061.20,1.30
16086.04,0.86
16110.88,1.95
16135.72,2.72
16160.57,2.61
16185.41,2.33
16210.25,1.90
16235.09,1.25
16259.94,1.13
16284.78,1.02
16309.62,1.36
16334.46,1.54
16359.31,1.06
16384.15,0.35
16408.99,0.29
16433.84,1.24
16458.68,2.39
16483.52,2.63
16508.36,1.99
16533.21,1.49
16558.05,1.87
16582.89,2.83
16607.73,3.69
16632.58,4.21
16657.42,4.08
16682.26,3.59
16707.10,3.10
16731.95,2.18
16756.79,2.09
16781.63,2.28
16806.47,2.45
16831.32,2.97
16856.16,3.35
16881.00,2.95
16905.84,2.44
16930.69,2.82
16955.53,4.04
16980.37,5.11
17005.21,4.96
17030.06,3.43
17054.90,1.42
17079.74,0.12
17104.58,0.08
17129.43,0.03
17154.27,0.62
17179.11,1.23
17203.96,1.42
17228.80,0.96
17253.64,0.71
17278.48,1.71
17303.33,3.08
17328.17,3.22
17353.01,2.16
17377.85,0.62
17402.70,-0.89
17427.54,-1.36
17452.38,-0.38
17477.22,0.70
17502.07,0.62
17526.91,0.13
17551.75,-0.36
17576.59,-1.20
17601.44,-1.07
17626.28,0.17
17651.12,1.77
17675.96,2.58
17700.81,2.28
17725.65,1.62
17750.49,1.35
17775.33,1.26
17800.18,1.04
17825.02,0.95
17849.86,1.38
17874.71,2.30
17899.55,2.96
17924.39,2.56
17949.23,2.01
17974.07,1.46
17998.92,0.46
18023.76,-0.04
18048.60,0.28
18073.45,1.27
18098.29,2.32
18123.13,3.20
18147.97,3.62
18172.82,3.14
18197.66,2.43
18222.50,2.60
18247.34,3.11
18272.19,2.58
18297.03,1.12
18321.87,-0.15
18346.71,-0.55
18371.56,-0.44
18396.40,-0.32
18421.24,0.19
18446.08,1.21
18470.93,2.33
18495.77,2.22
18520.61,0.88
18545.46,-0.10
