Size (bp),Intensity
0.58,1981.17
1.00,1901.94
2.00,1433.63
2.42,860.41
2.84,429.84
3.26,203.39
3.68,115.33
4.10,101.66
4.52,87.99
4.94,80.24
5.36,78.58
5.79,78.58
6.21,77.11
6.63,72.85
7.05,66.66
7.47,59.39
7.89,50.92
8.31,41.83
8.73,33.75
9.15,27.61
9.57,25.40
9.99,23.19
10.41,20.08
10.83,17.88
11.25,16.25
11.67,15.21
12.09,14.72
12.52,14.41
12.94,13.61
13.36,12.05
13.78,10.49
14.20,9.93
14.62,10.22
15.04,10.41
15.46,10.60
15.88,10.75
16.30,10.71
16.72,10.49
17.14,10.46
17.56,10.96
17.98,11.35
18.40,10.57
18.82,8.85
19.24,7.54
19.67,7.26
20.09,7.47
20.51,7.57
20.93,7.66
21.35,7.47
21.77,6.15
22.19,3.60
22.61,1.65
23.03,2.13
23.45,4.32
23.87,5.80
24.29,5.62
24.71,4.73
25.13,3.91
25.55,3.01
25.97,2.48
26.39,1.94
26.82,1.09
27.24,0.60
27.66,0.44
28.08,0.51
28.50,0.45
28.92,-0.02
29.34,-0.66
29.76,-0.98
30.18,-0.73
30.60,-0.04
31.02,0.81
31.44,1.10
31.86,1.40
32.28,1.35
32.70,0.88
33.12,0.84
33.55,1.43
33.97,1.81
34.39,1.34
34.81,0.20
35.23,-1.08
35.65,-1.51
36.07,-0.29
36.49,1.71
36.91,2.31
37.33,2.92
37.75,3.35
38.17,4.07
38.59,4.95
39.01,5.23
39.43,4.96
39.85,4.48
40.27,3.95
40.70,3.59
41.12,3.31
41.54,3.01
41.96,3.10
42.38,3.25
42.80,3.40
43.22,3.06
43.64,2.61
44.06,3.26
44.48,4.06
44.90,3.31
45.32,2.03
45.74,2.40
46.16,4.57
46.58,7.28
47.00,9.95
47.42,12.59
47.85,13.51
48.27,14.43
48.69,14.47
49.11,12.92
49.53,10.84
49.95,8.94
50.37,7.64
50.79,7.33
51.21,7.79
51.63,8.12
52.05,7.87
52.47,7.94
52.89,9.36
53.31,10.68
53.73,12.00
54.15,14.69
54.58,16.17
55.00,15.78
55.42,13.50
55.84,10.05
56.26,6.72
56.68,4.58
57.10,4.00
57.52,4.61
57.94,5.17
58.36,4.83
58.78,4.62
59.20,4.41
59.62,4.92
60.04,5.88
60.46,6.14
60.88,5.36
61.30,4.22
61.73,3.44
62.15,2.77
62.57,2.13
62.99,2.30
63.41,3.14
63.83,3.56
64.25,3.63
64.67,3.70
65.09,4.47
65.51,5.41
65.93,5.42
66.35,4.66
66.77,4.03
67.19,3.83
67.61,3.72
68.03,3.94
68.45,5.17
68.88,6.83
69.30,7.30
69.72,6.89
70.14,6.47
70.56,5.82
70.98,5.89
71.40,5.96
71.82,5.66
72.24,5.29
72.66,4.89
73.08,4.66
73.50,5.14
73.92,6.22
74.34,6.61
74.76,5.44
75.18,3.58
75.61,3.23
76.03,2.88
76.45,4.47
76.87,7.83
77.29,11.24
77.71,13.21
78.13,13.22
78.55,11.60
78.97,9.32
79.39,7.57
79.81,6.76
80.23,6.49
80.65,6.57
81.07,6.77
81.49,6.97
81.91,7.33
82.33,7.26
82.76,6.93
83.18,6.88
83.60,7.13
84.02,7.26
84.44,7.29
84.86,7.49
85.28,7.62
85.70,7.10
86.12,5.96
86.54,5.52
86.96,5.07
87.38,4.84
87.80,4.60
88.22,4.29
88.64,4.60
89.06,5.27
89.48,5.29
89.91,4.46
90.33,3.43
90.75,2.90
91.17,3.21
91.59,4.02
92.01,4.34
92.43,4.65
92.85,4.74
93.27,4.46
93.69,4.24
94.11,4.23
94.53,3.88
94.95,2.73
95.37,1.18
95.79,0.21
96.21,0.56
96.64,2.34
97.06,4.68
97.48,5.45
97.90,6.21
98.32,6.48
98.74,6.14
99.16,6.03
99.58,6.42
100.00,6.70
101.00,6.37
101.52,6.03
102.04,6.21
102.56,6.37
103.08,5.98
103.61,5.48
104.13,5.47
104.65,5.47
105.17,5.89
105.69,6.06
106.21,5.37
106.73,4.34
107.25,4.45
107.77,6.33
108.29,8.68
108.82,10.26
109.34,11.84
109.86,14.98
110.38,20.09
110.90,23.05
111.42,26.01
111.94,30.08
112.46,29.83
112.98,25.73
113.51,20.62
114.03,16.45
114.55,13.19
115.07,10.67
115.59,9.64
116.11,10.26
116.63,10.97
117.15,9.92
117.67,8.76
118.19,7.59
118.72,6.30
119.24,7.06
119.76,8.53
120.28,8.95
120.80,8.00
121.32,6.55
121.84,5.66
122.36,5.63
122.88,5.69
123.41,5.53
123.93,6.22
124.45,7.08
124.97,7.94
125.49,8.74
126.01,7.63
126.53,6.60
127.05,7.25
127.57,8.14
128.09,7.70
128.62,7.10
129.14,7.61
129.66,8.21
130.18,7.64
130.70,6.16
131.22,5.24
131.74,4.33
132.26,3.00
132.78,3.38
133.31,5.38
133.83,7.55
134.35,8.86
134.87,9.07
135.39,8.53
135.91,8.33
136.43,8.77
136.95,9.03
137.47,8.83
137.99,8.63
138.52,8.43
139.04,8.08
139.56,8.25
140.08,8.86
140.60,9.36
141.12,9.74
141.64,10.13
142.16,10.50
142.68,11.08
143.21,11.83
143.73,12.11
144.25,11.93
144.77,12.04
145.29,12.16
145.81,12.69
146.33,12.43
146.85,11.54
147.37,11.21
147.89,11.65
148.42,12.07
148.94,11.97
149.46,11.74
149.98,12.21
150.50,13.65
151.02,15.46
151.54,16.93
152.06,17.30
152.58,17.68
153.11,17.82
153.63,17.87
154.15,17.91
154.67,17.40
155.19,16.59
155.71,16.68
156.23,17.63
156.75,18.21
157.27,18.10
157.79,17.90
158.32,18.06
158.84,18.48
159.36,18.90
159.88,20.66
160.40,23.06
160.92,25.06
161.44,25.74
161.96,25.60
162.48,26.23
163.01,28.42
163.53,31.45
164.05,34.09
164.57,35.54
165.09,35.95
165.61,36.11
166.13,36.28
166.65,37.23
167.17,38.43
167.69,39.20
168.22,39.62
168.74,40.48
169.26,42.51
169.78,45.56
170.30,48.34
170.82,49.60
171.34,49.40
171.86,49.12
172.38,49.63
172.91,50.14
173.43,52.04
173.95,53.07
174.47,52.81
174.99,53.04
175.51,55.07
176.03,57.70
176.55,59.28
177.07,60.36
177.59,62.50
178.12,65.40
178.64,67.37
179.16,67.83
179.68,68.28
180.20,69.67
180.72,71.94
181.24,73.67
181.76,74.08
182.28,74.26
182.81,75.65
183.33,78.30
183.85,81.09
184.37,83.17
184.89,84.94
185.41,87.39
185.93,88.85
186.45,90.31
186.97,92.34
187.49,93.08
188.02,93.67
188.54,95.12
189.06,97.03
189.58,98.47
190.10,99.47
190.62,100.41
191.14,100.95
191.66,101.44
192.18,103.11
192.71,104.46
193.23,105.81
193.75,108.02
194.27,109.28
194.79,110.75
195.31,113.38
195.83,116.66
196.35,119.27
196.87,120.66
197.39,121.63
197.92,123.05
198.44,124.83
198.96,126.64
199.48,127.54
200.00,128.44
201.00,129.80
201.59,130.35
202.17,130.66
202.76,131.25
203.34,131.78
203.93,132.22
204.51,133.14
205.10,134.53
205.69,135.83
206.27,137.13
206.86,138.91
207.44,139.92
208.03,140.94
208.62,142.94
209.20,145.36
209.79,148.21
210.37,150.53
210.96,151.68
211.54,151.94
212.13,152.32
212.72,153.43
213.30,154.83
213.89,155.80
214.47,156.61
215.06,157.54
215.64,158.46
216.23,161.54
216.82,164.50
217.40,166.40
217.99,167.58
218.57,168.94
219.16,170.68
219.75,171.85
220.33,172.01
220.92,172.51
221.50,174.62
222.09,177.55
222.67,178.53
223.26,179.51
223.85,179.98
224.43,180.40
225.02,182.02
225.60,184.30
226.19,186.01
226.78,186.82
227.36,187.48
227.95,188.54
228.53,190.07
229.12,192.51
229.70,195.84
230.29,197.21
230.88,198.59
231.46,199.66
232.05,199.88
232.63,200.35
233.22,200.82
233.80,200.82
234.39,200.84
234.98,201.57
235.56,203.51
236.15,206.34
236.73,208.57
237.32,209.77
237.91,210.65
238.49,211.52
239.08,214.60
239.66,217.60
240.25,219.28
240.83,220.28
241.42,221.54
242.01,222.56
242.59,222.71
243.18,223.03
243.76,224.67
244.35,226.84
244.93,227.99
245.52,228.14
246.11,228.26
246.69,228.39
247.28,229.20
247.86,230.20
248.45,231.21
249.04,232.12
249.62,232.59
250.21,233.07
250.79,234.45
251.38,236.73
251.96,239.42
252.55,242.09
253.14,244.45
253.72,245.38
254.31,246.31
254.89,247.28
255.48,247.18
256.07,246.67
256.65,246.65
257.24,247.84
257.82,250.31
258.41,253.17
258.99,255.62
259.58,257.92
260.17,260.47
260.75,263.23
261.34,264.76
261.92,266.28
262.51,269.33
263.09,271.36
263.68,272.15
264.27,273.11
264.85,275.50
265.44,278.92
266.02,282.16
266.61,285.17
267.20,288.95
267.78,293.47
268.37,297.53
268.95,298.91
269.54,300.28
270.12,301.77
270.71,302.80
271.30,304.39
271.88,307.12
272.47,311.16
273.05,316.22
273.64,321.55
274.22,326.28
274.81,329.94
275.40,332.70
275.98,335.34
276.57,336.99
277.15,338.63
277.74,343.05
278.33,348.75
278.91,354.97
279.50,360.31
280.08,364.47
280.67,368.60
281.25,373.45
281.84,378.75
282.43,384.24
283.01,389.81
283.60,395.13
284.18,397.57
284.77,400.00
285.36,404.91
285.94,410.60
286.53,417.10
287.11,423.67
287.70,430.27
288.28,437.57
288.87,445.24
289.46,452.02
290.04,457.80
290.63,463.85
291.21,471.18
291.80,475.43
292.38,479.69
292.97,488.05
293.56,494.74
294.14,499.97
294.73,505.43
295.31,512.24
295.90,520.29
296.49,528.99
297.07,537.76
297.66,545.91
298.24,553.41
298.83,560.77
299.41,564.53
300.00,568.29
301.00,576.58
301.70,586.16
302.39,596.04
303.09,605.40
303.79,614.93
304.49,624.85
305.18,634.41
305.88,643.21
306.58,651.43
307.27,659.63
307.97,668.04
308.67,672.18
309.37,676.32
310.06,684.68
310.76,693.84
311.46,704.02
312.15,714.63
312.85,724.54
313.55,733.13
314.25,740.99
314.94,749.51
315.64,759.77
316.34,770.88
317.04,780.35
317.73,783.95
318.43,787.56
319.13,794.68
319.82,803.29
320.52,812.48
321.22,820.98
321.92,828.82
322.61,836.73
323.31,845.02
324.01,853.40
324.70,862.12
325.40,872.17
326.10,882.76
326.80,887.08
327.49,891.40
328.19,897.62
328.89,903.76
329.58,911.57
330.28,920.20
330.98,927.85
331.68,934.51
332.37,941.79
333.07,950.23
333.77,958.45
334.46,965.50
335.16,972.14
335.86,975.79
336.56,979.45
337.25,987.40
337.95,995.28
338.65,1002.71
339.35,1009.45
340.04,1014.84
340.74,1019.20
341.44,1023.93
342.13,1029.29
342.83,1034.90
343.53,1041.36
344.23,1048.12
344.92,1050.72
345.62,1053.33
346.32,1057.12
347.01,1061.34
347.71,1066.34
348.41,1071.22
349.11,1075.73
349.80,1080.31
350.50,1084.86
351.20,1088.69
351.89,1091.87
352.59,1095.37
353.29,1099.23
353.99,1102.50
354.68,1103.63
355.38,1104.76
356.08,1106.70
356.77,1109.72
357.47,1114.39
358.17,1119.12
358.87,1122.08
359.56,1123.37
360.26,1124.33
360.96,1125.92
361.65,1128.12
362.35,1130.13
363.05,1131.55
363.75,1132.04
364.44,1132.53
365.14,1132.94
365.84,1133.42
366.54,1135.52
367.23,1138.70
367.93,1140.47
368.63,1140.34
369.32,1140.59
370.02,1142.39
370.72,1144.38
371.42,1145.47
372.11,1146.27
372.81,1146.80
373.51,1147.33
374.20,1148.27
374.90,1148.75
375.60,1149.55
376.30,1151.41
376.99,1153.38
377.69,1154.35
378.39,1154.63
379.08,1154.50
379.78,1153.92
380.48,1153.35
381.18,1152.99
381.87,1152.71
382.57,1152.44
383.27,1151.36
383.96,1150.24
384.66,1150.22
385.36,1151.19
386.06,1151.33
386.75,1149.97
387.45,1147.91
388.15,1144.94
388.85,1140.99
389.54,1137.82
390.24,1136.33
390.94,1135.76
391.63,1135.19
392.33,1133.68
393.03,1132.85
393.73,1133.30
394.42,1133.82
395.12,1132.65
395.82,1129.49
396.51,1125.55
397.21,1121.83
397.91,1118.74
398.61,1116.79
399.30,1116.24
400.00,1116.37
401.00,1116.49
401.72,1116.27
402.45,1114.55
403.17,1111.41
403.89,1108.05
404.61,1105.69
405.34,1104.10
406.06,1101.90
406.78,1098.59
407.50,1094.98
408.23,1091.93
408.95,1089.68
409.67,1088.67
410.39,1087.66
411.12,1085.18
411.84,1082.82
412.56,1081.55
413.28,1080.54
414.01,1078.29
414.73,1074.90
415.45,1071.49
416.18,1068.85
416.90,1066.74
417.62,1063.95
418.34,1059.77
419.07,1057.62
419.79,1055.46
420.51,1052.29
421.23,1049.26
421.96,1045.26
422.68,1041.35
423.40,1038.65
424.12,1036.70
424.85,1034.96
425.57,1033.56
426.29,1031.70
427.01,1027.68
427.74,1021.78
428.46,1019.09
429.18,1016.40
429.91,1012.78
430.63,1010.57
431.35,1009.50
432.07,1008.40
432.80,1005.67
433.52,1001.65
434.24,997.78
434.96,993.95
435.69,989.75
436.41,985.82
437.13,982.15
437.85,979.94
438.58,977.73
439.30,972.79
440.02,968.86
440.74,966.53
441.47,964.95
442.19,963.01
442.91,960.03
443.64,956.00
444.36,951.40
445.08,946.64
445.80,942.34
446.53,938.69
447.25,936.56
447.97,934.44
448.69,929.30
449.42,924.86
450.14,921.83
450.86,919.53
451.58,917.39
452.31,914.91
453.03,911.80
453.75,908.05
454.47,903.58
455.20,898.75
455.92,893.92
456.64,891.42
457.36,888.92
458.09,883.94
458.81,879.44
459.53,875.83
460.26,873.55
460.98,871.72
461.70,868.36
462.42,863.25
463.15,858.17
463.87,854.14
464.59,850.45
465.31,846.41
466.04,842.61
466.76,841.20
467.48,839.78
468.20,836.95
468.93,832.39
469.65,826.13
470.37,820.10
471.09,815.78
471.82,813.11
472.54,811.55
473.26,810.33
473.99,807.89
474.71,803.66
475.43,799.14
476.15,797.21
476.88,795.27
477.60,791.17
478.32,786.63
479.04,782.63
479.77,779.33
480.49,775.80
481.21,771.86
481.93,768.03
482.66,763.89
483.38,758.97
484.10,754.52
484.82,751.72
485.55,750.61
486.27,749.50
486.99,746.55
487.72,743.64
488.44,741.93
489.16,740.29
489.88,736.44
490.61,730.35
491.33,724.19
492.05,719.30
492.77,715.55
493.50,712.43
494.22,709.18
494.94,707.37
495.66,705.57
496.39,702.08
497.11,698.76
497.83,695.30
498.55,691.91
499.28,688.54
500.00,684.69
501.00,680.63
502.01,677.10
503.02,674.01
504.03,670.58
505.04,666.62
506.05,664.69
507.06,662.77
508.07,659.48
509.08,656.40
510.09,653.44
511.10,650.43
512.11,646.60
513.12,642.24
514.13,638.68
515.14,635.88
516.15,632.29
517.16,627.41
518.17,622.79
519.18,621.27
520.19,619.74
521.20,617.73
522.21,615.45
523.22,612.24
524.23,608.09
525.24,603.67
526.26,600.26
527.27,598.09
528.28,595.78
529.29,592.21
530.30,587.65
531.31,583.32
532.32,581.90
533.33,580.48
534.34,578.92
535.35,576.74
536.36,572.40
537.37,566.78
538.38,561.95
539.39,558.04
540.40,553.95
541.41,550.12
542.42,547.68
543.43,546.10
544.44,543.93
545.45,542.39
546.46,540.84
547.47,537.62
548.48,534.75
549.49,531.84
550.50,528.62
551.51,525.53
552.52,522.87
553.53,520.00
554.54,515.95
555.55,511.22
556.56,507.83
557.57,506.33
558.58,505.49
559.59,504.65
560.60,501.84
561.61,499.31
562.62,497.45
563.63,494.90
564.64,490.90
565.65,485.98
566.66,481.36
567.67,477.58
568.68,473.89
569.69,470.15
570.70,467.47
571.71,466.75
572.72,466.03
573.73,464.45
574.74,461.50
575.76,457.91
576.77,455.51
577.78,454.17
578.79,451.92
579.80,448.67
580.81,446.25
581.82,445.00
582.83,443.42
583.84,440.75
584.85,439.09
585.86,437.42
586.87,433.48
587.88,428.73
588.89,424.11
589.90,421.09
590.91,419.88
591.92,418.89
592.93,416.30
593.94,412.03
594.95,407.64
595.96,403.95
596.97,400.39
597.98,398.48
598.99,396.56
600.00,393.11
601.00,390.56
602.18,388.74
603.36,387.41
604.54,385.91
605.71,383.28
606.89,380.03
608.07,377.17
609.25,374.33
610.43,371.03
611.61,367.63
612.79,365.92
613.96,364.21
615.14,360.99
616.32,358.61
617.50,356.68
618.68,354.07
619.86,351.19
621.04,349.61
622.21,349.47
623.39,349.27
624.57,347.96
625.75,345.52
626.93,342.33
628.11,339.18
629.29,337.91
630.46,336.65
631.64,334.43
632.82,331.94
634.00,328.86
635.18,325.38
636.36,322.38
637.54,320.15
638.71,317.91
639.89,315.74
641.07,314.40
642.25,313.12
643.43,310.18
644.61,307.82
645.79,305.46
646.96,300.60
648.14,297.04
649.32,294.93
650.50,293.85
651.68,293.21
652.86,291.88
654.04,289.43
655.21,287.19
656.39,286.10
657.57,284.90
658.75,282.09
659.93,279.96
661.11,277.84
662.29,273.65
663.46,271.04
664.64,270.07
665.82,269.01
667.00,266.29
668.18,262.60
669.36,259.74
670.54,257.87
671.71,255.49
672.89,251.98
674.07,248.54
675.25,247.50
676.43,246.46
677.61,245.49
678.79,244.65
679.96,243.01
681.14,239.78
682.32,235.40
683.50,231.37
684.68,228.31
685.86,226.07
687.04,224.43
688.21,222.85
689.39,221.23
690.57,220.71
691.75,220.18
692.93,219.79
694.11,218.98
695.29,216.82
696.46,213.84
697.64,211.11
698.82,208.73
700.00,206.36
701.00,204.42
702.98,203.51
704.96,202.92
706.94,201.23
708.92,199.81
710.90,198.39
712.88,195.45
714.86,192.79
716.84,190.29
718.82,188.17
720.80,186.53
722.78,185.22
724.76,184.04
726.74,182.64
728.72,180.58
730.70,178.14
732.68,176.44
734.66,176.10
736.64,175.76
738.62,174.80
740.60,172.76
742.58,170.65
744.56,169.15
746.54,167.64
748.52,165.51
750.50,162.70
752.48,159.53
754.46,156.95
756.44,155.30
758.42,153.83
760.40,153.33
762.38,152.83
764.36,153.28
766.34,154.45
768.32,154.78
770.30,153.88
772.28,152.02
774.26,149.73
776.24,148.03
778.22,147.27
780.20,146.44
782.18,144.17
784.16,140.02
786.14,137.59
788.12,135.16
790.10,131.41
792.08,129.47
794.06,129.14
796.04,129.89
798.02,130.74
800.00,130.86
801.00,129.96
803.36,127.81
805.71,124.61
808.07,121.44
810.43,119.55
812.79,119.17
815.14,118.78
817.50,118.17
819.86,117.71
822.21,117.39
824.57,116.10
826.93,113.39
829.29,110.58
831.64,108.72
834.00,107.57
836.36,106.25
838.71,104.33
841.07,102.80
843.43,102.97
845.79,103.14
848.14,104.68
850.50,105.08
852.86,103.52
855.21,101.00
857.57,98.72
859.93,97.18
862.29,96.15
864.64,95.11
867.00,93.79
869.36,92.47
871.71,91.79
874.07,91.68
876.43,91.57
878.79,91.18
881.14,90.60
883.50,89.82
885.86,88.15
888.21,85.57
890.57,83.41
892.93,82.49
895.29,82.15
897.64,81.98
900.00,82.24
901.00,82.48
904.67,82.18
908.33,81.88
912.00,80.34
915.67,78.34
919.33,77.15
923.00,77.55
926.67,77.98
930.33,76.43
934.00,73.71
937.67,71.98
941.33,71.51
945.00,71.09
948.67,70.07
952.33,68.70
956.00,68.10
959.67,67.51
963.33,67.02
967.00,67.21
970.67,67.26
974.33,66.23
978.00,64.18
981.67,62.27
985.33,61.34
989.00,61.23
992.67,61.62
996.33,62.15
1000.00,62.39
1001.00,62.25
1006.10,62.12
1011.21,60.99
1016.31,58.89
1021.41,57.06
1026.51,56.81
1031.62,57.35
1036.72,57.10
1041.82,55.92
1046.92,54.73
1052.03,54.04
1057.13,53.65
1062.23,53.28
1067.33,53.01
1072.44,52.75
1077.54,51.84
1082.64,50.54
1087.74,49.12
1092.85,47.78
1097.95,46.89
1103.05,46.86
1108.15,46.86
1113.26,45.47
1118.36,43.17
1123.46,42.09
1128.56,43.17
1133.67,44.15
1138.77,45.14
1143.87,46.45
1148.97,46.98
1154.08,47.04
1159.18,46.50
1164.28,45.64
1169.38,45.06
1174.49,44.90
1179.59,44.78
1184.69,43.36
1189.79,39.73
1194.90,35.92
1200.00,35.37
1201.00,34.83
1210.06,36.09
1219.12,37.22
1228.18,37.12
1237.24,36.12
1246.30,34.77
1255.36,33.97
1264.42,34.22
1273.48,34.77
1282.55,34.91
1291.61,34.80
1300.67,34.67
1309.73,34.77
1318.79,34.86
1327.85,35.75
1336.91,36.52
1345.97,35.78
1355.03,33.97
1364.09,32.66
1373.15,32.19
1382.21,32.00
1391.27,32.28
1400.33,33.39
1409.39,34.58
1418.45,34.91
1427.52,34.55
1436.58,34.19
1445.64,32.52
1454.70,30.80
1463.76,30.36
1472.82,30.71
1481.88,30.39
1490.94,29.49
1500.00,28.67
1501.00,28.17
1510.24,28.39
1519.48,29.42
1528.72,30.18
1537.96,29.96
1547.20,29.74
1556.44,28.99
1565.69,29.02
1574.93,29.13
1584.17,28.29
1593.41,26.80
1602.65,25.52
1611.89,25.02
1621.13,25.16
1630.37,25.10
1639.61,24.63
1648.85,24.33
1658.09,24.31
1667.33,24.29
1676.57,24.10
1685.81,23.82
1695.06,24.10
1704.30,25.21
1713.54,26.27
1722.78,26.61
1732.02,26.74
1741.26,27.07
1750.50,27.27
1759.74,26.97
1768.98,26.33
1778.22,26.12
1787.46,25.91
1796.70,25.93
1805.94,26.07
1815.19,26.04
1824.43,25.51
1833.67,24.24
1842.91,23.10
1852.15,23.23
1861.39,23.85
1870.63,23.52
1879.87,22.82
1889.11,22.87
1898.35,22.96
1907.59,23.05
1916.83,22.73
1926.07,22.30
1935.31,21.77
1944.56,21.18
1953.80,21.74
1963.04,23.74
1972.28,25.21
1981.52,24.56
1990.76,22.60
2000.00,21.09
2001.00,20.49
2018.22,20.24
2035.45,19.99
2052.67,18.98
2069.90,17.95
2087.12,17.65
2104.34,18.21
2121.57,19.28
2138.79,19.92
2156.02,19.24
2173.24,18.12
2190.47,18.24
2207.69,19.53
2224.91,20.73
2242.14,21.35
2259.36,21.38
2276.59,21.40
2293.81,20.98
2311.03,20.45
2328.26,20.12
2345.48,20.04
2362.71,20.14
2379.93,20.25
2397.16,20.26
2414.38,20.43
2431.60,21.25
2448.83,22.70
2466.05,23.73
2483.28,23.49
2500.50,23.25
2517.72,21.93
2534.95,21.23
2552.17,21.15
2569.40,21.23
2586.62,21.62
2603.84,22.04
2621.07,21.79
2638.29,20.90
2655.52,19.89
2672.74,18.86
2689.97,17.79
2707.19,17.49
2724.41,17.19
2741.64,17.53
2758.86,18.50
2776.09,19.14
2793.31,19.05
2810.53,18.83
2827.76,19.01
2844.98,19.28
2862.21,19.09
2879.43,18.28
2896.66,17.05
2913.88,16.02
2931.10,15.91
2948.33,15.81
2965.55,16.64
2982.78,18.33
3000.00,20.03
3001.00,20.39
3025.99,18.95
3050.98,17.19
3075.98,17.31
3100.97,19.66
3125.96,21.92
3150.95,21.89
3175.94,19.91
3200.93,18.90
3225.93,17.89
3250.92,16.99
3275.91,17.10
3300.90,18.00
3325.89,19.50
3350.88,20.58
3375.87,20.13
3400.87,18.66
3425.86,17.86
3450.85,18.30
3475.84,18.89
3500.83,18.77
3525.82,18.41
3550.82,18.05
3575.81,17.08
3600.80,16.44
3625.79,16.85
3650.78,17.89
3675.77,18.28
3700.77,17.86
3725.76,17.72
3750.75,18.24
3775.74,18.49
3800.73,17.46
3825.73,15.29
3850.72,14.41
3875.71,13.54
3900.70,13.43
3925.69,13.91
3950.68,13.30
3975.68,12.00
4000.67,11.41
4025.66,11.55
4050.65,11.79
4075.64,11.99
4100.63,12.15
4125.62,12.33
4150.62,12.71
4175.61,12.74
4200.60,12.77
4225.59,11.85
4250.58,10.29
4275.58,9.19
4300.57,9.30
4325.56,10.51
4350.55,12.15
4375.54,13.37
4400.53,13.60
4425.52,12.94
4450.52,11.63
4475.51,9.88
4500.50,9.14
4525.49,8.40
4550.48,7.85
4575.48,8.19
4600.47,9.10
4625.46,10.04
4650.45,10.01
4675.44,8.85
4700.43,8.12
4725.42,8.70
4750.42,9.27
4775.41,8.84
4800.40,8.15
4825.39,8.00
4850.38,7.85
4875.37,7.82
4900.37,8.27
4925.36,9.37
4950.35,10.49
4975.34,11.06
5000.33,11.09
5025.33,10.93
5050.32,10.82
5075.31,10.60
5100.30,9.98
5125.29,9.26
5150.28,9.26
5175.27,9.26
5200.27,9.93
5225.26,10.15
5250.25,9.60
5275.24,9.34
5300.23,9.90
5325.23,10.70
5350.22,11.20
5375.21,11.39
5400.20,11.43
5425.19,11.76
5450.18,12.61
5475.17,12.92
5500.17,13.23
5525.16,12.98
5550.15,12.62
5575.14,12.95
5600.13,13.36
5625.12,13.43
5650.12,14.78
5675.11,20.67
5700.10,36.76
5725.09,74.84
5750.08,155.29
5775.08,303.11
5800.07,420.64
5825.06,538.17
5850.05,864.43
5875.04,1262.51
5900.03,1689.33
5925.02,2083.94
5950.02,2378.12
5975.01,2514.20
6000.00,2465.64
6024.79,2247.08
6049.64,1907.78
6074.48,1513.70
6099.32,1126.31
6124.16,788.34
6149.01,654.63
6173.85,520.92
6198.69,326.69
6223.53,196.11
6248.38,115.28
6273.22,70.03
6298.06,47.31
6322.90,37.11
6347.75,33.16
6372.59,31.92
6397.43,31.73
6422.27,32.20
6447.12,33.13
6471.96,33.51
6496.80,33.89
6521.65,34.08
6546.49,33.74
6571.33,32.84
6596.17,30.86
6621.02,27.33
6645.86,23.14
6670.70,19.92
6695.54,18.24
6720.39,17.36
6745.23,16.28
6770.07,14.72
6794.91,14.06
6819.76,13.39
6844.60,12.88
6869.44,12.80
6894.28,12.53
6919.13,12.02
6943.97,11.78
6968.81,12.24
6993.65,12.94
7018.50,13.03
7043.34,12.05
7068.18,10.30
7093.02,9.00
7117.87,9.07
7142.71,9.14
7167.55,9.97
7192.39,9.89
7217.24,8.39
7242.08,6.22
7266.92,4.55
7291.77,4.05
7316.61,4.25
7341.45,4.36
7366.29,4.49
7391.14,5.05
7415.98,5.71
7440.82,5.82
7465.66,5.93
7490.51,5.72
7515.35,5.22
7540.19,4.47
7565.03,3.80
7589.88,3.40
7614.72,2.85
7639.56,2.04
7664.40,1.57
7689.25,1.90
7714.09,3.05
7738.93,4.62
7763.77,4.98
7788.62,5.35
7813.46,4.48
7838.30,3.02
7863.14,2.51
7887.99,3.15
7912.83,4.07
7937.67,4.48
7962.51,4.54
7987.36,5.10
8012.20,6.13
8037.04,6.38
8061.89,5.29
8086.73,4.52
8111.57,3.76
8136.41,2.38
8161.26,1.02
8186.10,0.37
8210.94,1.07
8235.78,1.99
8260.63,2.04
8285.47,1.95
8310.31,2.45
8335.15,3.15
8360.00,3.56
8384.84,3.20
8409.68,2.61
8434.52,2.02
8459.37,1.23
8484.21,1.57
8509.05,2.09
8533.89,1.82
8558.74,1.10
8583.58,0.85
8608.42,1.40
8633.26,2.06
8658.11,2.39
8682.95,2.92
8707.79,3.67
8732.63,3.63
8757.48,3.59
8782.32,2.53
8807.16,1.78
8832.00,2.06
8856.85,2.89
8881.69,3.57
8906.53,3.82
8931.37,4.09
8956.22,4.73
8981.06,5.15
9005.90,4.81
9030.75,3.61
9055.59,2.65
9080.43,1.68
9105.27,0.06
9130.12,-0.19
9154.96,0.48
9179.80,0.83
9204.64,0.36
9229.49,-0.38
9254.33,-0.58
9279.17,-0.22
9304.01,0.17
9328.86,0.29
9353.70,0.19
9378.54,0.34
9403.38,0.50
9428.23,2.06
9453.07,4.39
9477.91,5.83
9502.75,5.22
9527.60,3.30
9552.44,2.11
9577.28,2.37
9602.12,2.91
9626.97,2.87
9651.81,2.50
9676.65,2.09
9701.50,2.19
9726.34,2.28
9751.18,3.87
9776.02,6.08
9800.87,6.62
9825.71,4.91
9850.55,2.84
9875.39,1.78
9900.24,1.02
9925.08,0.00
9949.92,-0.78
9974.76,-1.14
9999.61,-1.16
10024.45,-0.85
10049.29,-0.55
10074.13,0.80
10098.98,2.22
10123.82,2.60
10148.66,1.69
10173.50,0.67
10198.35,0.25
10223.19,-0.15
10248.03,-0.64
10272.87,-0.50
10297.72,0.22
10322.56,0.71
10347.40,0.67
10372.25,0.60
10397.09,0.53
10421.93,0.47
10446.77,0.19
10471.62,-0.65
10496.46,-1.70
10521.30,-1.61
10546.14,0.05
10570.99,1.49
10595.83,1.25
10620.67,0.14
10645.51,-0.46
10670.36,-0.25
10695.20,0.01
10720.04,0.27
10744.88,0.38
10769.73,-0.04
10794.57,-0.48
10819.41,-0.84
10844.25,-1.54
10869.10,-2.29
10893.94,-2.26
10918.78,-1.32
10943.62,-0.04
10968.47,0.96
10993.31,1.21
11018.15,0.78
11043.00,0.35
11067.84,-1.49
11092.68,-2.98
11117.52,-2.81
11142.37,-1.79
11167.21,-1.54
11192.05,-2.21
11216.89,-3.12
11241.74,-4.01
11266.58,-4.88
11291.42,-5.07
11316.26,-3.46
11341.11,-1.94
11365.95,-0.41
11390.79,1.91
11415.63,2.23
11440.48,1.59
11465.32,1.35
11490.16,1.48
11515.00,1.77
11539.85,2.37
11564.69,2.43
11589.53,1.18
11614.37,-0.43
11639.22,-1.02
11664.06,-0.85
11688.90,-0.68
11713.74,-0.54
11738.59,-1.26
11763.43,-2.23
11788.27,-2.43
11813.12,-1.98
11837.96,-1.88
11862.80,-2.19
11887.64,-2.10
11912.49,-1.76
11937.33,-1.77
11962.17,-2.02
11987.01,-2.20
12011.86,-2.38
12036.70,-2.97
12061.54,-3.68
12086.38,-4.07
12111.23,-3.63
12136.07,-2.58
12160.91,-1.85
12185.75,-1.49
12210.60,-0.77
12235.44,0.14
12260.28,0.48
12285.12,0.45
12309.97,0.48
12334.81,0.51
12359.65,0.37
12384.49,-0.02
12409.34,-0.13
12434.18,-0.13
12459.02,-0.50
12483.86,-0.88
12508.71,-0.75
12533.55,-0.36
12558.39,-0.36
12583.24,-0.91
12608.08,-0.99
12632.92,-0.41
12657.76,0.17
12682.61,1.72
12707.45,2.67
12732.29,2.83
12757.13,2.08
12781.98,0.84
12806.82,0.17
12831.66,0.44
12856.50,0.97
12881.35,0.89
12906.19,0.25
12931.03,0.37
12955.87,1.27
12980.72,2.17
13005.56,4.26
13030.40,4.42
13055.24,2.70
13080.09,1.12
13104.93,0.39
13129.77,-0.38
13154.61,-1.16
13179.46,-1.22
13204.30,-1.09
13229.14,-1.67
13253.98,-2.33
13278.83,-2.28
13303.67,-2.23
13328.51,-2.08
13353.35,-2.77
13378.20,-3.64
13403.04,-3.51
13427.88,-2.80
13452.73,-2.73
13477.57,-3.25
13502.41,-3.44
13527.25,-3.15
13552.10,-2.72
13576.94,-2.19
13601.78,-1.90
13626.62,-1.62
13651.47,-1.12
13676.31,-0.59
13701.15,0.06
13725.99,0.69
13750.84,0.94
13775.68,0.88
13800.52,1.13
13825.36,1.61
13850.21,1.35
13875.05,0.35
13899.89,-0.18
13924.73,-0.04
13949.58,0.11
13974.42,0.33
13999.26,-0.17
14024.10,-0.98
14048.95,-1.37
14073.79,-1.11
14098.63,-0.54
14123.47,-0.09
14148.32,0.38
14173.16,1.00
14198.00,1.22
14222.85,0.61
14247.69,-0.01
14272.53,0.36
14297.37,0.72
14322.22,2.69
14347.06,3.44
14371.90,1.26
14396.74,-1.56
14421.59,-1.67
14446.43,0.52
14471.27,2.54
14496.11,3.19
14520.96,2.22
14545.80,0.13
14570.64,-1.45
14595.48,-1.50
14620.33,-1.56
14645.17,-0.92
14670.01,-0.31
14694.85,0.04
14719.70,-0.27
14744.54,-1.21
14769.38,-1.98
14794.22,-2.12
14819.07,-1.85
14843.91,-1.45
14868.75,-1.15
14893.59,-1.43
14918.44,-1.94
14943.28,-2.45
14968.12,-3.23
14992.97,-2.69
15017.81,-1.51
15042.65,-1.04
15067.49,-1.27
15092.34,-1.37
15117.18,-0.96
15142.02,-0.32
15166.86,-0.01
15191.71,-0.08
15216.55,0.06
15241.39,0.30
15266.23,0.54
15291.08,0.63
15315.92,0.01
15340.76,-0.71
15365.60,-1.01
15390.45,-0.93
15415.29,-0.65
15440.13,-0.52
15464.97,-0.93
15489.82,-1.74
15514.66,-2.61
15539.50,-3.25
15564.34,-3.26
15589.19,-3.27
15614.03,-2.66
15638.87,-1.97
15663.71,-1.38
15688.56,-0.44
15713.40,0.78
15738.24,1.15
15763.08,0.06
15787.93,-1.29
15812.77,-1.77
15837.61,-2.08
15862.46,-2.63
15887.30,-2.44
15912.14,-2.25
15936.98,-0.53
15961.83,0.90
15986.67,0.73
16011.51,-0.14
16036.35,-0.28
16061.20,0.23
16086.04,0.50
16110.88,0.25
16135.72,-0.13
16160.57,-0.21
16185.41,0.30
16210.25,0.68
16235.09,1.06
16259.94,1.14
16284.78,0.20
16309.62,-1.08
16334.46,-2.02
16359.31,-2.34
16384.15,-2.08
16408.99,-1.38
16433.84,-0.55
16458.68,0.05
16483.52,0.52
16508.36,1.25
16533.21,1.62
16558.05,1.98
16582.89,1.89
16607.73,0.78
16632.58,-0.50
16657.42,-1.12
16682.26,-1.09
16707.10,-0.83
16731.95,-0.33
16756.79,0.88
16781.63,2.36
16806.47,2.66
16831.32,1.69
16856.16,1.31
16881.00,0.92
16905.84,0.72
16930.69,0.58
16955.53,0.75
16980.37,1.17
17005.21,1.03
17030.06,0.38
17054.90,0.08
17079.74,0.27
17104.58,0.24
17129.43,-0.28
17154.27,-0.78
17179.11,-0.82
17203.96,-0.86
17228.80,-0.64
17253.64,-0.56
17278.48,-1.01
17303.33,-1.67
17328.17,-1.76
17353.01,-1.51
17377.85,-1.59
17402.70,-1.61
17427.54,-1.31
17452.38,-1.57
17477.22,-2.45
17502.07,-2.47
17526.91,-2.50
17551.75,-1.07
17576.59,0.55
17601.44,0.91
17626.28,-0.12
17651.12,-1.42
17675.96,-1.48
17700.81,-0.15
17725.65,0.79
17750.49,0.21
17775.33,-0.56
17800.18,0.02
17825.02,0.77
17849.86,1.52
17874.71,2.65
17899.55,2.71
17924.39,1.79
17949.23,0.44
17974.07,-0.63
17998.92,-0.85
18023.76,-0.31
18048.60,-0.12
18073.45,-0.98
18098.29,-2.04
18123.13,-2.37
18147.97,-2.29
18172.82,-2.21
18197.66,-2.01
18222.50,-1.62
18247.34,-1.26
18272.19,-1.59
18297.03,-2.62
18321.87,-3.73
18346.71,-4.34
18371.56,-4.34
18396.40,-4.26
18421.24,-4.57
18446.08,-4.79
18470.93,-4.32
18495.77,-4.06
18520.61,-3.80
18545.46,-3.91
