Size (bp),Intensity
0.58,1976.22
1.00,1693.19
2.00,1142.29
2.42,623.33
2.84,298.05
3.26,224.22
3.68,150.40
4.10,98.74
4.52,84.39
4.94,83.16
5.36,86.38
5.79,88.64
6.21,86.14
6.63,78.32
7.05,67.41
7.47,55.95
7.89,45.05
8.31,40.18
8.73,35.32
9.15,27.76
9.57,22.65
9.99,18.88
10.41,15.63
10.83,13.57
11.25,13.09
11.67,12.94
12.09,11.71
12.52,9.51
12.94,7.27
13.36,5.58
13.78,5.26
14.20,4.93
14.62,5.54
15.04,6.86
15.46,8.05
15.88,9.07
16.30,10.36
16.72,11.53
17.14,11.69
17.56,10.98
17.98,10.20
18.40,9.35
18.82,8.67
19.24,7.99
19.67,6.46
20.09,5.48
20.51,5.19
20.93,5.21
21.35,5.18
21.77,4.64
22.19,3.26
22.61,1.85
23.03,1.72
23.45,2.42
23.87,2.39
24.29,2.35
24.71,1.56
25.13,1.87
25.55,3.61
25.97,4.73
26.39,3.90
26.82,2.23
27.24,1.46
27.66,1.84
28.08,2.01
28.50,0.75
28.92,-0.36
29.34,-1.48
29.76,-3.05
30.18,-3.22
30.60,-2.87
31.02,-2.73
31.44,-2.07
31.86,-0.33
32.28,1.50
32.70,2.20
33.12,1.89
33.55,1.30
33.97,0.82
34.39,0.35
34.81,-1.04
35.23,-2.03
35.65,-2.00
36.07,-1.37
36.49,-0.74
36.91,-0.05
37.33,0.77
37.75,1.37
38.17,1.51
38.59,1.27
39.01,1.11
39.43,1.42
39.85,1.73
40.27,2.78
40.70,3.34
41.12,3.65
41.54,4.23
41.96,4.55
42.38,4.10
42.80,3.18
43.22,2.25
43.64,1.95
44.06,2.57
44.48,2.83
44.90,3.10
45.32,2.76
45.74,1.95
46.16,1.21
46.58,0.99
47.00,1.70
47.42,2.85
47.85,3.51
48.27,3.24
48.69,2.36
49.11,1.55
49.53,1.32
49.95,1.08
50.37,0.75
50.79,0.44
51.21,0.14
51.63,-0.05
52.05,0.01
52.47,0.05
52.89,-0.18
53.31,-0.16
53.73,0.34
54.15,0.92
54.58,1.17
55.00,1.41
55.42,1.92
55.84,2.36
56.26,2.44
56.68,2.16
57.10,1.84
57.52,1.28
57.94,0.22
58.36,-0.43
58.78,0.50
59.20,2.49
59.62,3.99
60.04,4.33
60.46,4.67
60.88,5.25
61.30,5.56
61.73,4.82
62.15,3.67
62.57,3.41
62.99,3.85
63.41,4.37
63.83,5.03
64.25,5.52
64.67,5.24
65.09,4.71
65.51,4.18
65.93,2.89
66.35,2.38
66.77,3.07
67.19,3.78
67.61,3.34
68.03,2.41
68.45,2.40
68.88,3.70
69.30,5.25
69.72,5.55
70.14,4.91
70.56,4.27
70.98,2.62
71.40,1.72
71.82,1.43
72.24,1.20
72.66,1.15
73.08,1.70
73.50,2.49
73.92,2.59
74.34,1.97
74.76,1.66
75.18,1.98
75.61,2.30
76.03,3.40
76.45,3.92
76.87,3.52
77.29,2.96
77.71,2.93
78.13,3.20
78.55,3.04
78.97,1.82
79.39,-0.10
79.81,-1.31
80.23,-1.02
80.65,-0.73
81.07,1.35
81.49,3.50
81.91,4.27
82.33,3.63
82.76,2.96
83.18,3.11
83.60,3.46
84.02,3.32
84.44,2.76
84.86,2.24
85.28,2.16
85.70,2.16
86.12,2.15
86.54,1.47
86.96,0.74
87.38,1.15
87.80,2.31
88.22,2.87
88.64,2.55
89.06,2.38
89.48,3.23
89.91,4.27
90.33,4.07
90.75,3.48
91.17,2.90
91.59,2.23
92.01,2.80
92.43,4.16
92.85,5.29
93.27,5.37
93.69,4.30
94.11,2.58
94.53,1.09
94.95,0.34
95.37,0.19
95.79,0.30
96.21,0.41
96.64,1.14
97.06,2.23
97.48,2.94
97.90,2.85
98.32,2.76
98.74,3.35
99.16,3.93
99.58,3.89
100.00,3.76
101.00,4.11
101.52,4.47
102.04,4.84
102.56,5.87
103.08,7.11
103.61,8.19
104.13,9.20
104.65,10.59
105.17,12.06
105.69,12.36
106.21,10.88
106.73,8.61
107.25,7.00
107.77,6.60
108.29,6.70
108.82,6.79
109.34,6.97
109.86,7.44
110.38,8.43
110.90,9.40
111.42,9.97
111.94,9.99
112.46,9.48
112.98,9.01
113.51,9.25
114.03,10.13
114.55,10.53
115.07,10.93
115.59,11.39
116.11,12.28
116.63,13.85
117.15,14.95
117.67,14.94
118.19,14.41
118.72,13.79
119.24,13.09
119.76,12.86
120.28,13.75
120.80,14.48
121.32,15.21
121.84,15.90
122.36,15.60
122.88,15.22
123.41,15.13
123.93,14.72
124.45,14.02
124.97,14.24
125.49,15.93
126.01,17.67
126.53,17.86
127.05,17.61
127.57,17.35
128.09,18.22
128.62,20.44
129.14,22.21
129.66,22.67
130.18,22.42
130.70,22.44
131.22,23.22
131.74,24.43
132.26,25.67
132.78,27.28
133.31,28.26
133.83,29.23
134.35,30.46
134.87,30.61
135.39,30.32
135.91,30.04
136.43,30.18
136.95,31.34
137.47,33.30
137.99,35.17
138.52,36.33
139.04,36.61
139.56,36.71
140.08,37.29
140.60,37.87
141.12,39.94
141.64,41.44
142.16,41.99
142.68,42.51
143.21,43.47
143.73,44.25
144.25,44.31
144.77,44.51
145.29,46.49
145.81,49.91
146.33,51.25
146.85,52.59
147.37,53.75
147.89,54.78
148.42,56.23
148.94,56.87
149.46,56.39
149.98,56.21
150.50,57.34
151.02,59.28
151.54,60.89
152.06,61.47
152.58,61.42
153.11,61.37
153.63,61.33
154.15,61.67
154.67,62.87
155.19,65.35
155.71,68.34
156.23,70.33
156.75,70.96
157.27,71.23
157.79,72.08
158.32,73.29
158.84,73.72
159.36,74.15
159.88,74.97
160.40,76.53
160.92,78.51
161.44,79.99
161.96,81.04
162.48,82.28
163.01,83.85
163.53,85.23
164.05,86.03
164.57,86.74
165.09,88.10
165.61,88.99
166.13,89.87
166.65,91.23
167.17,92.36
167.69,93.91
168.22,95.54
168.74,96.53
169.26,97.19
169.78,98.60
170.30,101.03
170.82,103.42
171.34,105.07
171.86,105.81
172.38,106.54
172.91,108.39
173.43,110.19
173.95,111.38
174.47,111.98
174.99,112.33
175.51,112.94
176.03,114.29
176.55,116.09
177.07,117.67
177.59,119.05
178.12,119.86
178.64,120.67
179.16,122.64
179.68,124.92
180.20,127.52
180.72,130.17
181.24,132.16
181.76,133.07
182.28,133.59
182.81,134.89
183.33,137.20
183.85,139.72
184.37,140.68
184.89,141.63
185.41,142.87
185.93,143.97
186.45,145.29
186.97,146.96
187.49,149.12
188.02,151.27
188.54,152.84
189.06,154.48
189.58,156.98
190.10,159.68
190.62,160.57
191.14,161.46
191.66,162.53
192.18,163.97
192.71,166.24
193.23,168.92
193.75,171.53
194.27,173.81
194.79,175.77
195.31,177.62
195.83,179.58
196.35,181.94
196.87,184.55
197.39,185.57
197.92,186.59
198.44,187.63
198.96,188.05
199.48,188.54
200.00,189.54
201.00,191.06
201.59,192.97
202.17,195.18
202.76,197.20
203.34,198.25
203.93,198.58
204.51,199.27
205.10,199.95
205.69,203.22
206.27,207.00
206.86,209.73
207.44,211.12
208.03,211.94
208.62,213.25
209.20,215.31
209.79,217.53
210.37,219.80
210.96,222.29
211.54,223.37
212.13,224.46
212.72,225.23
213.30,224.38
213.89,223.46
214.47,224.45
215.06,227.48
215.64,230.93
216.23,233.63
216.82,235.86
217.40,237.97
217.99,239.99
218.57,240.95
219.16,241.92
219.75,243.62
220.33,245.08
220.92,246.47
221.50,247.92
222.09,249.83
222.67,252.85
223.26,256.54
223.85,259.54
224.43,261.34
225.02,262.58
225.60,264.04
226.19,265.08
226.78,266.12
227.36,268.58
227.95,270.66
228.53,271.98
229.12,272.97
229.70,274.46
230.29,276.63
230.88,278.70
231.46,280.12
232.05,281.77
232.63,284.69
233.22,286.50
233.80,288.31
234.39,291.44
234.98,294.07
235.56,296.06
236.15,296.79
236.73,297.33
237.32,299.52
237.91,303.21
238.49,306.95
239.08,310.14
239.66,312.83
240.25,314.04
240.83,315.25
241.42,317.92
242.01,320.83
242.59,323.29
243.18,325.20
243.76,326.67
244.35,327.57
244.93,328.62
245.52,330.84
246.11,333.97
246.69,337.05
247.28,338.30
247.86,339.56
248.45,341.73
249.04,344.28
249.62,347.02
250.21,349.06
250.79,350.72
251.38,353.25
251.96,357.01
252.55,361.26
253.14,365.09
253.72,367.93
254.31,368.87
254.89,369.81
255.48,371.40
256.07,373.46
256.65,375.90
257.24,378.35
257.82,381.53
258.41,386.27
258.99,391.60
259.58,395.81
260.17,398.67
260.75,401.13
261.34,403.49
261.92,404.46
262.51,405.43
263.09,407.33
263.68,409.90
264.27,412.79
264.85,415.40
265.44,418.53
266.02,423.49
266.61,429.79
267.20,435.31
267.78,438.94
268.37,441.48
268.95,442.78
269.54,444.07
270.12,447.42
270.71,451.55
271.30,455.85
271.88,459.86
272.47,463.22
273.05,465.69
273.64,468.03
274.22,471.19
274.81,474.89
275.40,478.41
275.98,480.05
276.57,481.68
277.15,485.12
277.74,489.43
278.33,494.88
278.91,500.57
279.50,505.41
280.08,509.33
280.67,512.68
281.25,515.56
281.84,518.13
282.43,521.04
283.01,523.27
283.60,525.49
284.18,531.53
284.77,537.13
285.36,540.87
285.94,543.75
286.53,547.39
287.11,552.08
287.70,557.18
288.28,562.39
288.87,567.66
289.46,572.68
290.04,577.20
290.63,579.12
291.21,581.04
291.80,584.19
292.38,587.55
292.97,592.34
293.56,598.30
294.14,604.00
294.73,608.23
295.31,610.86
295.90,613.31
296.49,617.13
297.07,622.40
297.66,625.33
298.24,628.26
298.83,633.69
299.41,638.15
300.00,642.10
301.00,646.14
301.70,650.55
302.39,655.76
303.09,661.28
303.79,665.61
304.49,668.53
305.18,671.88
305.88,674.49
306.58,677.11
307.27,683.08
307.97,687.77
308.67,691.38
309.37,695.43
310.06,700.08
310.76,704.85
311.46,710.28
312.15,716.90
312.85,723.53
313.55,728.12
314.25,729.45
314.94,730.78
315.64,733.59
316.34,737.24
317.04,740.85
317.73,744.59
318.43,749.19
319.13,753.77
319.82,757.32
320.52,761.34
321.22,767.19
321.92,772.80
322.61,774.36
323.31,775.92
324.01,777.50
324.70,779.64
325.40,783.15
326.10,787.71
326.80,792.33
327.49,795.89
328.19,798.87
328.89,802.93
329.58,807.83
330.28,810.79
330.98,810.76
331.68,810.63
332.37,810.50
333.07,812.99
333.77,818.16
334.46,823.98
335.16,828.69
335.86,831.94
336.56,834.88
337.25,838.37
337.95,841.61
338.65,843.75
339.35,845.12
340.04,845.74
340.74,846.36
341.44,848.24
342.13,851.38
342.83,855.38
343.53,859.20
344.23,862.27
344.92,864.82
345.62,867.34
346.32,869.66
347.01,871.19
347.71,872.01
348.41,872.27
349.11,872.53
349.80,873.03
350.50,874.10
351.20,876.35
351.89,879.83
352.59,884.02
353.29,887.87
353.99,890.17
354.68,890.86
355.38,891.05
356.08,891.68
356.77,892.28
357.47,892.89
358.17,894.19
358.87,894.86
359.56,894.87
360.26,895.22
360.96,896.81
361.65,899.29
362.35,901.51
363.05,902.94
363.75,903.97
364.44,904.99
365.14,905.18
365.84,904.39
366.54,903.59
367.23,901.49
367.93,901.05
368.63,901.98
369.32,902.45
370.02,902.25
370.72,902.29
371.42,902.95
372.11,904.36
372.81,906.04
373.51,906.29
374.20,905.44
374.90,904.59
375.60,902.99
376.30,903.10
376.99,904.14
377.69,904.61
378.39,903.89
379.08,902.27
379.78,900.98
380.48,901.41
381.18,903.29
381.87,904.98
382.57,905.32
383.27,905.67
383.96,905.66
384.66,905.05
385.36,904.04
386.06,903.67
386.75,904.35
387.45,904.55
388.15,903.12
388.85,901.34
389.54,900.68
390.24,899.98
390.94,898.78
391.63,897.59
392.33,894.00
393.03,890.54
393.73,888.17
394.42,887.62
395.12,888.45
395.82,889.01
396.51,888.31
397.21,887.03
397.91,885.97
398.61,884.68
399.30,883.85
400.00,883.01
401.00,882.20
401.72,882.41
402.45,881.68
403.17,878.81
403.89,874.78
404.61,870.94
405.34,867.73
406.06,865.11
406.78,863.03
407.50,861.27
408.23,859.40
408.95,858.58
409.67,857.75
410.39,857.46
411.12,858.57
411.84,859.62
412.56,859.56
413.28,858.58
414.01,857.46
414.73,856.58
415.45,855.05
416.18,851.99
416.90,848.28
417.62,846.86
418.34,845.44
419.07,843.66
419.79,841.91
420.51,839.18
421.23,835.66
421.96,833.00
422.68,832.35
423.40,832.26
424.12,830.63
424.85,828.19
425.57,827.71
426.29,828.50
427.01,829.29
427.74,829.60
428.46,826.49
429.18,821.53
429.91,817.06
430.63,814.00
431.35,812.66
432.07,813.03
432.80,813.94
433.52,813.94
434.24,812.59
434.96,811.39
435.69,810.18
436.41,807.47
437.13,804.99
437.85,802.24
438.58,799.04
439.30,796.39
440.02,794.19
440.74,791.07
441.47,787.47
442.19,785.57
442.91,785.76
443.64,785.79
444.36,785.82
445.08,784.00
445.80,781.13
446.53,779.09
447.25,777.97
447.97,776.28
448.69,773.49
449.42,770.28
450.14,767.15
450.86,764.52
451.58,762.80
452.31,761.87
453.03,761.44
453.75,761.01
454.47,759.27
455.20,756.12
455.92,752.42
456.64,749.20
457.36,746.38
458.09,743.95
458.81,742.20
459.53,740.70
460.26,739.01
460.98,736.95
461.70,735.73
462.42,734.51
463.15,732.60
463.87,731.65
464.59,730.35
465.31,727.73
466.04,724.03
466.76,719.70
467.48,715.59
468.20,712.63
468.93,710.83
469.65,709.71
470.37,708.95
471.09,708.19
471.82,705.06
472.54,700.79
473.26,697.28
473.99,695.31
474.71,693.24
475.43,689.30
476.15,684.23
476.88,680.36
477.60,678.82
478.32,678.29
479.04,677.75
479.77,677.22
480.49,675.74
481.21,674.36
481.93,672.99
482.66,671.58
483.38,670.03
484.10,668.07
484.82,665.79
485.55,663.39
486.27,660.25
486.99,656.27
487.72,653.00
488.44,652.04
489.16,651.09
489.88,648.66
490.61,644.27
491.33,639.45
492.05,636.28
492.77,634.83
493.50,634.03
494.22,633.17
494.94,632.21
495.66,631.21
496.39,629.56
497.11,628.03
497.83,626.50
498.55,622.36
499.28,617.71
500.00,612.79
501.00,608.64
502.01,606.40
503.02,605.37
504.03,603.70
505.04,600.89
506.05,598.24
507.06,596.53
508.07,595.64
509.08,594.76
510.09,592.07
511.10,589.05
512.11,586.39
513.12,583.73
514.13,581.10
515.14,579.02
516.15,577.17
517.16,574.63
518.17,571.41
519.18,568.02
520.19,566.24
521.20,564.45
522.21,560.94
523.22,558.27
524.23,556.24
525.24,553.73
526.26,550.71
527.27,548.40
528.28,547.11
529.29,545.19
530.30,541.41
531.31,537.20
532.32,535.77
533.33,534.34
534.34,532.09
535.35,529.10
536.36,525.96
537.37,523.94
538.38,522.66
539.39,520.54
540.40,517.32
541.41,514.42
542.42,511.99
543.43,509.07
544.44,506.31
545.45,505.47
546.46,504.64
547.47,503.04
548.48,500.23
549.49,496.50
550.50,492.67
551.51,489.29
552.52,486.73
553.53,484.70
554.54,482.22
555.55,479.21
556.56,476.59
557.57,475.57
558.58,474.55
559.59,472.38
560.60,469.48
561.61,465.65
562.62,461.39
563.63,457.63
564.64,454.77
565.65,452.58
566.66,450.77
567.67,449.01
568.68,446.95
569.69,445.78
570.70,444.61
571.71,441.78
572.72,438.30
573.73,435.10
574.74,432.91
575.76,430.63
576.77,427.34
577.78,424.06
578.79,421.89
579.80,420.02
580.81,417.01
581.82,415.06
582.83,413.11
583.84,409.94
584.85,407.82
585.86,405.59
586.87,403.34
587.88,401.97
588.89,400.59
589.90,397.86
590.91,394.27
591.92,390.86
592.93,388.04
593.94,385.78
594.95,384.73
595.96,383.67
596.97,381.72
597.98,380.67
598.99,380.37
600.00,379.55
601.00,377.48
602.18,374.56
603.36,371.16
604.54,367.10
605.71,362.63
606.89,358.68
608.07,357.17
609.25,355.66
610.43,353.38
611.61,352.06
612.79,351.61
613.96,350.86
615.14,348.80
616.32,345.76
617.50,342.50
618.68,338.74
619.86,333.68
621.04,328.26
622.21,326.61
623.39,324.97
624.57,324.52
625.75,324.71
626.93,323.06
628.11,319.58
629.29,316.50
630.46,314.98
631.64,313.59
632.82,310.97
634.00,307.47
635.18,304.43
636.36,303.74
637.54,303.05
638.71,303.08
639.89,302.88
641.07,301.34
642.25,298.87
643.43,296.36
644.61,293.87
645.79,291.18
646.96,288.88
648.14,287.04
649.32,284.46
650.50,282.57
651.68,280.69
652.86,276.92
654.04,274.27
655.21,272.42
656.39,270.36
657.57,267.71
658.75,265.02
659.93,262.98
661.11,261.41
662.29,259.44
663.46,256.60
664.64,253.39
665.82,252.17
667.00,250.95
668.18,249.82
669.36,248.98
670.54,247.53
671.71,245.64
672.89,243.40
674.07,241.12
675.25,239.36
676.43,237.39
677.61,234.20
678.79,230.00
679.96,227.94
681.14,225.89
682.32,222.63
683.50,219.73
684.68,216.47
685.86,213.49
687.04,211.63
688.21,210.21
689.39,208.22
690.57,205.75
691.75,203.40
692.93,201.42
694.11,200.57
695.29,199.72
696.46,198.33
697.64,197.46
698.82,196.39
700.00,193.92
701.00,190.41
702.98,187.43
704.96,185.97
706.94,185.89
708.92,186.13
710.90,185.37
712.88,184.44
714.86,183.51
716.84,181.50
718.82,179.63
720.80,177.43
722.78,174.70
724.76,171.68
726.74,168.54
728.72,165.18
730.70,161.94
732.68,159.90
734.66,159.29
736.64,158.90
738.62,158.35
740.60,157.80
742.58,156.24
744.56,154.90
746.54,153.76
748.52,152.05
750.50,149.52
752.48,147.29
754.46,146.47
756.44,146.55
758.42,146.10
760.40,144.42
762.38,143.05
764.36,141.69
766.34,138.60
768.32,136.48
770.30,136.19
772.28,136.50
774.26,135.41
776.24,132.67
778.22,129.42
780.20,126.77
782.18,125.57
784.16,125.34
786.14,124.77
788.12,124.20
790.10,122.04
792.08,120.79
794.06,121.04
796.04,121.31
798.02,120.49
800.00,119.10
801.00,118.06
803.36,117.07
805.71,115.51
808.07,114.12
810.43,114.01
812.79,113.91
815.14,114.19
817.50,113.55
819.86,111.86
822.21,109.89
824.57,108.04
826.93,106.42
829.29,105.44
831.64,105.08
834.00,104.51
836.36,103.23
838.71,102.52
841.07,101.81
843.43,100.86
845.79,100.29
848.14,99.56
850.50,98.09
852.86,95.72
855.21,93.02
857.57,91.00
859.93,90.33
862.29,90.68
864.64,90.67
867.00,89.34
869.36,88.36
871.71,87.38
874.07,85.90
876.43,84.95
878.79,84.12
881.14,83.55
883.50,83.45
885.86,83.51
888.21,83.44
890.57,83.61
892.93,84.31
895.29,84.62
897.64,84.15
900.00,83.67
901.00,81.66
904.67,78.87
908.33,75.51
912.00,73.13
915.67,73.37
919.33,75.10
923.00,75.75
926.67,74.94
930.33,73.68
934.00,71.90
937.67,70.94
941.33,69.97
945.00,69.10
948.67,68.73
952.33,67.29
956.00,65.31
959.67,64.43
963.33,64.70
967.00,64.86
970.67,64.16
974.33,63.07
978.00,62.56
981.67,62.71
985.33,62.86
989.00,62.94
992.67,61.60
996.33,59.29
1000.00,57.84
1001.00,57.85
1006.10,57.99
1011.21,57.48
1016.31,56.99
1021.41,56.90
1026.51,56.65
1031.62,55.80
1036.72,55.27
1041.82,54.75
1046.92,54.44
1052.03,54.98
1057.13,55.50
1062.23,55.22
1067.33,53.76
1072.44,51.72
1077.54,50.69
1082.64,50.93
1087.74,50.82
1092.85,49.70
1097.95,49.13
1103.05,48.56
1108.15,47.82
1113.26,46.93
1118.36,46.12
1123.46,46.08
1128.56,46.41
1133.67,46.17
1138.77,45.48
1143.87,45.38
1148.97,45.98
1154.08,46.18
1159.18,45.81
1164.28,45.44
1169.38,44.71
1174.49,45.10
1179.59,46.00
1184.69,45.63
1189.79,43.60
1194.90,41.25
1200.00,39.75
1201.00,39.50
1210.06,40.15
1219.12,40.72
1228.18,40.87
1237.24,41.03
1246.30,41.99
1255.36,43.46
1264.42,44.01
1273.48,43.17
1282.55,41.87
1291.61,40.54
1300.67,38.97
1309.73,37.64
1318.79,37.19
1327.85,36.79
1336.91,36.22
1345.97,35.64
1355.03,34.74
1364.09,34.84
1373.15,34.67
1382.21,33.20
1391.27,31.58
1400.33,31.18
1409.39,31.65
1418.45,32.10
1427.52,32.37
1436.58,32.62
1445.64,32.66
1454.70,32.38
1463.76,32.11
1472.82,31.04
1481.88,29.93
1490.94,29.55
1500.00,30.46
1501.00,31.84
1510.24,31.97
1519.48,30.94
1528.72,30.33
1537.96,30.53
1547.20,30.90
1556.44,31.06
1565.69,31.21
1574.93,31.24
1584.17,30.92
1593.41,30.50
1602.65,29.99
1611.89,29.20
1621.13,28.54
1630.37,28.39
1639.61,28.33
1648.85,28.21
1658.09,28.26
1667.33,28.16
1676.57,28.05
1685.81,27.22
1695.06,26.60
1704.30,26.69
1713.54,26.74
1722.78,26.19
1732.02,25.25
1741.26,24.17
1750.50,23.10
1759.74,22.16
1768.98,21.79
1778.22,22.08
1787.46,22.38
1796.70,23.57
1805.94,24.45
1815.19,24.51
1824.43,24.19
1833.67,24.10
1842.91,24.43
1852.15,25.14
1861.39,25.83
1870.63,25.84
1879.87,25.14
1889.11,24.44
1898.35,24.35
1907.59,24.27
1916.83,24.66
1926.07,25.28
1935.31,25.59
1944.56,25.11
1953.80,23.73
1963.04,22.11
1972.28,21.17
1981.52,21.16
1990.76,21.45
2000.00,21.26
2001.00,20.92
2018.22,20.57
2035.45,20.07
2052.67,20.40
2069.90,21.23
2087.12,21.72
2104.34,21.70
2121.57,21.67
2138.79,22.02
2156.02,22.69
2173.24,23.38
2190.47,23.73
2207.69,23.70
2224.91,23.67
2242.14,23.54
2259.36,23.65
2276.59,23.92
2293.81,23.82
2311.03,22.87
2328.26,21.39
2345.48,20.53
2362.71,21.02
2379.93,22.15
2397.16,23.00
2414.38,23.20
2431.60,23.41
2448.83,23.08
2466.05,21.85
2483.28,20.83
2500.50,21.13
2517.72,22.18
2534.95,22.57
2552.17,22.00
2569.40,21.44
2586.62,21.62
2603.84,22.01
2621.07,21.84
2638.29,21.67
2655.52,20.68
2672.74,20.18
2689.97,20.79
2707.19,21.96
2724.41,22.82
2741.64,22.92
2758.86,22.33
2776.09,21.61
2793.31,21.32
2810.53,21.26
2827.76,20.91
2844.98,20.73
2862.21,20.55
2879.43,20.90
2896.66,21.83
2913.88,22.67
2931.10,23.18
2948.33,23.34
2965.55,23.19
2982.78,23.16
3000.00,23.57
3001.00,23.90
3025.99,23.75
3050.98,23.61
3075.98,23.47
3100.97,23.37
3125.96,23.11
3150.95,22.22
3175.94,20.91
3200.93,19.84
3225.93,19.28
3250.92,19.58
3275.91,21.26
3300.90,23.45
3325.89,24.17
3350.88,23.55
3375.87,22.92
3400.87,21.29
3425.86,20.79
3450.85,21.34
3475.84,21.75
3500.83,21.43
3525.82,20.95
3550.82,20.72
3575.81,20.27
3600.80,19.67
3625.79,19.86
3650.78,20.37
3675.77,20.89
3700.77,21.94
3725.76,22.95
3750.75,24.06
3775.74,24.58
3800.73,23.85
3825.73,22.07
3850.72,20.00
3875.71,18.54
3900.70,17.99
3925.69,17.78
3950.68,17.34
3975.68,17.06
4000.67,16.77
4025.66,16.40
4050.65,16.34
4075.64,16.35
4100.63,16.29
4125.62,16.49
4150.62,17.17
4175.61,17.68
4200.60,17.21
4225.59,16.14
4250.58,15.48
4275.58,15.53
4300.57,15.58
4325.56,15.98
4350.55,15.93
4375.54,15.08
4400.53,14.22
4425.52,14.26
4450.52,14.40
4475.51,13.89
4500.50,13.74
4525.49,14.50
4550.48,15.06
4575.48,15.02
4600.47,14.97
4625.46,14.93
4650.45,15.03
4675.44,14.59
4700.43,13.74
4725.42,13.45
4750.42,13.89
4775.41,14.20
4800.40,14.22
4825.39,14.59
4850.38,14.98
4875.37,14.56
4900.37,14.13
4925.36,11.74
4950.35,9.25
4975.34,8.44
5000.33,9.85
5025.33,12.09
5050.32,12.93
5075.31,11.64
5100.30,9.68
5125.29,8.88
5150.28,9.70
5175.27,10.45
5200.27,11.21
5225.26,12.40
5250.25,13.04
5275.24,13.08
5300.23,12.60
5325.23,12.40
5350.22,12.84
5375.21,13.28
5400.20,13.27
5425.19,12.87
5450.18,12.34
5475.17,11.97
5500.17,11.84
5525.16,11.71
5550.15,11.43
5575.14,11.25
5600.13,11.38
5625.12,12.52
5650.12,16.21
5675.11,24.91
5700.10,43.78
5725.09,83.80
5750.08,162.06
5775.08,297.64
5800.07,401.29
5825.06,504.94
5850.05,787.21
5875.04,1131.01
5900.03,1501.85
5925.02,1846.57
5950.02,2107.59
5975.01,2240.50
6000.00,2224.08
6024.79,2064.83
6049.64,1797.34
6074.48,1472.91
6099.32,1306.84
6124.16,1140.77
6149.01,836.95
6173.85,583.23
6198.69,388.20
6223.53,249.04
6248.38,156.43
6273.22,99.29
6298.06,66.60
6322.90,48.58
6347.75,38.35
6372.59,32.03
6397.43,29.72
6422.27,27.41
6447.12,23.52
6471.96,20.81
6496.80,19.56
6521.65,18.83
6546.49,17.77
6571.33,16.75
6596.17,16.45
6621.02,16.86
6645.86,17.63
6670.70,18.98
6695.54,21.11
6720.39,22.35
6745.23,23.58
6770.07,26.03
6794.91,28.09
6819.76,28.85
6844.60,27.79
6869.44,25.81
6894.28,24.06
6919.13,22.71
6943.97,21.12
6968.81,18.97
6993.65,16.92
7018.50,16.41
7043.34,15.90
7068.18,15.70
7093.02,15.42
7117.87,14.83
7142.71,14.52
7167.55,15.10
7192.39,16.55
7217.24,18.05
7242.08,18.66
7266.92,18.01
7291.77,16.39
7316.61,15.51
7341.45,14.63
7366.29,13.62
7391.14,13.20
7415.98,12.35
7440.82,10.85
7465.66,9.63
7490.51,9.37
7515.35,9.50
7540.19,8.83
7565.03,7.48
7589.88,6.97
7614.72,7.31
7639.56,7.66
7664.40,8.01
7689.25,7.01
7714.09,5.52
7738.93,4.82
7763.77,5.13
7788.62,5.59
7813.46,5.33
7838.30,4.44
7863.14,3.73
7887.99,3.58
7912.83,3.63
7937.67,3.67
7962.51,4.04
7987.36,5.04
8012.20,6.20
8037.04,6.63
8061.89,6.56
8086.73,7.03
8111.57,8.14
8136.41,8.69
8161.26,8.13
8186.10,7.40
8210.94,7.13
8235.78,7.06
8260.63,6.99
8285.47,6.82
8310.31,6.51
8335.15,5.82
8360.00,4.93
8384.84,4.36
8409.68,4.27
8434.52,4.25
8459.37,3.79
8484.21,2.98
8509.05,2.17
8533.89,1.86
8558.74,1.55
8583.58,1.81
8608.42,3.50
8633.26,5.88
8658.11,7.62
8682.95,8.09
8707.79,7.58
8732.63,6.82
8757.48,6.24
8782.32,5.56
8807.16,4.50
8832.00,4.05
8856.85,3.60
8881.69,3.32
8906.53,3.50
8931.37,4.11
8956.22,5.07
8981.06,5.65
9005.90,5.36
9030.75,4.32
9055.59,3.16
9080.43,2.76
9105.27,3.06
9130.12,3.20
9154.96,3.33
9179.80,3.40
9204.64,3.43
9229.49,3.56
9254.33,3.76
9279.17,3.59
9304.01,3.34
9328.86,4.10
9353.70,5.37
9378.54,5.39
9403.38,4.23
9428.23,3.72
9453.07,4.07
9477.91,4.41
9502.75,4.90
9527.60,4.11
9552.44,2.97
9577.28,2.85
9602.12,3.34
9626.97,3.39
9651.81,3.40
9676.65,4.15
9701.50,4.98
9726.34,4.97
9751.18,4.87
9776.02,4.77
9800.87,5.24
9825.71,5.80
9850.55,5.60
9875.39,4.90
9900.24,4.28
9925.08,3.73
9949.92,3.18
9974.76,2.84
9999.61,2.72
10024.45,3.02
10049.29,3.75
10074.13,4.47
10098.98,6.42
10123.82,6.95
10148.66,6.05
10173.50,5.32
10198.35,5.46
10223.19,6.00
10248.03,6.22
10272.87,5.93
10297.72,5.42
10322.56,4.80
10347.40,4.46
10372.25,4.11
10397.09,3.74
10421.93,3.87
10446.77,4.19
10471.62,4.33
10496.46,4.15
10521.30,3.45
10546.14,2.42
10570.99,2.02
10595.83,2.56
10620.67,2.98
10645.51,2.87
10670.36,2.75
10695.20,2.46
10720.04,2.37
10744.88,2.24
10769.73,1.93
10794.57,1.51
10819.41,1.44
10844.25,2.10
10869.10,3.02
10893.94,3.49
10918.78,3.36
10943.62,2.75
10968.47,2.35
10993.31,1.94
11018.15,1.43
11043.00,1.47
11067.84,1.75
11092.68,1.90
11117.52,1.68
11142.37,1.17
11167.21,0.99
11192.05,1.90
11216.89,3.53
11241.74,4.33
11266.58,3.98
11291.42,3.63
11316.26,2.42
11341.11,1.62
11365.95,1.36
11390.79,1.60
11415.63,1.97
11440.48,1.48
11465.32,-0.06
11490.16,-1.35
11515.00,-1.36
11539.85,-0.78
11564.69,-0.57
11589.53,-0.35
11614.37,0.45
11639.22,2.01
11664.06,3.55
11688.90,3.96
11713.74,3.20
11738.59,2.52
11763.43,2.77
11788.27,3.27
11813.12,3.15
11837.96,2.64
11862.80,2.61
11887.64,2.58
11912.49,3.18
11937.33,3.75
11962.17,4.05
11987.01,4.63
12011.86,5.26
12036.70,4.89
12061.54,3.64
12086.38,2.99
12111.23,3.59
12136.07,4.61
12160.91,5.18
12185.75,5.12
12210.60,5.07
12235.44,4.36
12260.28,3.13
12285.12,1.71
12309.97,0.85
12334.81,0.84
12359.65,0.96
12384.49,0.94
12409.34,1.32
12434.18,1.67
12459.02,1.24
12483.86,1.00
12508.71,0.76
12533.55,1.20
12558.39,2.03
12583.24,2.30
12608.08,1.91
12632.92,1.29
12657.76,1.05
12682.61,1.79
12707.45,3.32
12732.29,4.58
12757.13,4.92
12781.98,4.93
12806.82,4.93
12831.66,5.18
12856.50,5.41
12881.35,5.16
12906.19,4.51
12931.03,3.81
12955.87,3.41
12980.72,3.36
13005.56,3.40
13030.40,3.23
13055.24,2.80
13080.09,2.40
13104.93,2.01
13129.77,0.74
13154.61,-0.41
13179.46,-0.36
13204.30,0.94
13229.14,2.31
13253.98,2.84
13278.83,2.47
13303.67,1.79
13328.51,1.86
13353.35,2.70
13378.20,2.79
13403.04,2.88
13427.88,1.84
13452.73,0.83
13477.57,0.50
13502.41,0.24
13527.25,-0.10
13552.10,-0.31
13576.94,-0.81
13601.78,-1.70
13626.62,-2.30
13651.47,-2.02
13676.31,-0.76
13701.15,0.01
13725.99,0.79
13750.84,1.40
13775.68,0.70
13800.52,-0.09
13825.36,0.15
13850.21,0.94
13875.05,1.38
13899.89,1.73
13924.73,2.42
13949.58,2.87
13974.42,2.74
13999.26,2.69
14024.10,2.65
14048.95,2.76
14073.79,2.77
14098.63,3.21
14123.47,4.60
14148.32,6.31
14173.16,7.44
14198.00,7.85
14222.85,7.87
14247.69,7.59
14272.53,6.69
14297.37,5.81
14322.22,4.93
14347.06,3.07
14371.90,2.33
14396.74,2.43
14421.59,2.27
14446.43,2.09
14471.27,2.67
14496.11,3.88
14520.96,5.15
14545.80,6.19
14570.64,6.83
14595.48,6.96
14620.33,7.10
14645.17,7.43
14670.01,7.98
14694.85,7.91
14719.70,6.77
14744.54,5.50
14769.38,4.91
14794.22,5.04
14819.07,5.59
14843.91,6.14
14868.75,6.56
14893.59,6.97
14918.44,7.19
14943.28,7.42
14968.12,7.97
14992.97,8.14
15017.81,7.16
15042.65,5.59
15067.49,4.72
15092.34,4.53
15117.18,4.24
15142.02,3.62
15166.86,2.75
15191.71,1.96
15216.55,1.88
15241.39,1.81
15266.23,2.08
15291.08,2.20
15315.92,2.47
15340.76,3.13
15365.60,3.84
15390.45,4.44
15415.29,4.65
15440.13,4.07
15464.97,3.16
15489.82,2.50
15514.66,2.31
15539.50,2.12
15564.34,1.95
15589.19,1.88
15614.03,1.82
15638.87,2.45
15663.71,4.01
15688.56,5.22
15713.40,4.83
15738.24,3.10
15763.08,1.17
15787.93,0.16
15812.77,0.35
15837.61,0.54
15862.46,1.70
15887.30,2.62
15912.14,3.02
15936.98,3.02
15961.83,2.64
15986.67,2.31
16011.51,2.74
16036.35,3.46
16061.20,3.40
16086.04,2.72
16110.88,2.53
16135.72,2.33
16160.57,2.45
16185.41,2.78
16210.25,2.99
16235.09,2.80
16259.94,2.48
16284.78,2.47
16309.62,2.85
16334.46,3.26
16359.31,3.25
16384.15,3.08
16408.99,3.41
16433.84,3.70
16458.68,3.99
16483.52,4.37
16508.36,4.92
16533.21,5.68
16558.05,5.95
16582.89,5.66
16607.73,5.38
16632.58,5.24
16657.42,4.75
16682.26,3.78
16707.10,3.32
16731.95,3.74
16756.79,4.16
16781.63,5.37
16806.47,5.35
16831.32,4.21
16856.16,3.29
16881.00,3.08
16905.84,3.42
16930.69,4.08
16955.53,4.10
16980.37,3.02
17005.21,1.83
17030.06,1.63
17054.90,1.43
17079.74,1.68
17104.58,2.28
17129.43,2.96
17154.27,3.23
17179.11,2.73
17203.96,1.78
17228.80,1.08
17253.64,1.15
17278.48,2.12
17303.33,3.61
17328.17,4.16
17353.01,4.71
17377.85,4.54
17402.70,3.08
17427.54,1.38
17452.38,0.70
17477.22,1.29
17502.07,2.27
17526.91,2.46
17551.75,1.92
17576.59,1.92
17601.44,2.85
17626.28,3.62
17651.12,3.71
17675.96,3.81
17700.81,3.97
17725.65,3.93
17750.49,3.04
17775.33,1.79
17800.18,1.38
17825.02,1.91
17849.86,2.46
17874.71,2.64
17899.55,2.97
17924.39,3.57
17949.23,3.66
17974.07,3.74
17998.92,3.23
18023.76,2.52
18048.60,2.04
18073.45,1.87
18098.29,1.87
18123.13,2.07
18147.97,2.79
18172.82,3.95
18197.66,4.70
18222.50,4.52
18247.34,4.26
18272.19,3.99
18297.03,4.11
18321.87,4.64
18346.71,4.38
18371.56,3.28
18396.40,2.61
18421.24,3.02
18446.08,3.91
18470.93,4.31
18495.77,3.83
18520.61,3.11
18545.46,2.98
