Size (bp),Intensity
0.58,1103.19
1.00,1010.92
2.00,801.75
2.42,568.95
2.84,377.47
3.26,245.79
3.68,164.36
4.10,116.96
4.52,103.68
4.94,90.40
5.36,76.10
5.79,68.59
6.21,63.70
6.63,58.79
7.05,53.13
7.47,47.23
7.89,41.81
8.31,36.85
8.73,31.69
9.15,26.38
9.57,21.94
9.99,18.94
10.41,16.96
10.83,15.51
11.25,14.94
11.67,14.38
12.09,13.49
12.52,12.71
12.94,11.38
13.36,8.63
13.78,4.89
14.20,2.28
14.62,2.58
15.04,5.14
15.46,7.88
15.88,10.36
16.30,13.99
16.72,18.97
17.14,23.72
17.56,25.23
17.98,26.73
18.40,27.41
18.82,25.75
19.24,22.44
19.67,18.81
20.09,16.04
20.51,13.84
20.93,11.04
21.35,8.00
21.77,6.28
22.19,5.93
22.61,5.64
23.03,4.98
23.45,4.17
23.87,2.95
24.29,2.25
24.71,1.56
25.13,0.77
25.55,0.32
25.97,-0.80
26.39,-2.30
26.82,-2.99
27.24,-2.56
27.66,-1.27
28.08,0.33
28.50,1.32
28.92,1.43
29.34,1.24
29.76,0.85
30.18,0.02
30.60,-0.89
31.02,-0.94
31.44,-1.00
31.86,0.03
32.28,1.17
32.70,1.06
33.12,-0.28
33.55,-1.84
33.97,-3.00
34.39,-3.66
34.81,-3.70
35.23,-3.17
35.65,-2.67
36.07,-2.63
36.49,-2.39
36.91,-1.33
37.33,-0.64
37.75,0.04
38.17,0.92
38.59,1.20
39.01,1.11
39.43,0.81
39.85,0.79
40.27,1.62
40.70,2.95
41.12,3.39
41.54,2.07
41.96,0.01
42.38,-1.19
42.80,-1.32
43.22,-1.16
43.64,-0.99
44.06,-0.77
44.48,-0.55
44.90,-0.06
45.32,-0.12
45.74,-0.92
46.16,-1.71
46.58,-1.32
47.00,0.47
47.42,2.11
47.85,2.19
48.27,1.36
48.69,0.82
49.11,0.60
49.53,0.30
49.95,-0.29
50.37,-0.78
50.79,-0.45
51.21,-0.12
51.63,1.50
52.05,2.50
52.47,2.22
52.89,1.33
53.31,0.56
53.73,0.55
54.15,1.53
54.58,2.80
55.00,3.65
55.42,4.72
55.84,6.70
56.26,8.93
56.68,10.23
57.10,10.18
57.52,10.12
57.94,8.90
58.36,7.20
58.78,5.51
59.20,4.17
59.62,3.37
60.04,3.24
60.46,4.15
60.88,6.02
61.30,7.51
61.73,7.32
62.15,5.82
62.57,4.16
62.99,3.23
63.41,3.37
63.83,3.66
64.25,3.96
64.67,4.05
65.09,3.79
65.51,3.52
65.93,2.68
66.35,1.21
66.77,0.13
67.19,-0.12
67.61,0.36
68.03,1.72
68.45,3.44
68.88,4.28
69.30,3.50
69.72,1.50
70.14,-0.30
70.56,-0.67
70.98,-1.05
71.40,-1.48
71.82,-2.27
72.24,-2.97
72.66,-3.14
73.08,-2.81
73.50,-2.24
73.92,-1.67
74.34,-1.25
74.76,-1.07
75.18,-1.03
75.61,-0.82
76.03,-0.68
76.45,-1.22
76.87,-1.47
77.29,-1.72
77.71,-1.02
78.13,0.09
78.55,0.06
78.97,-0.88
79.39,-1.49
79.81,-1.32
80.23,-0.54
80.65,0.44
81.07,0.87
81.49,0.27
81.91,-1.03
82.33,-2.71
82.76,-4.43
83.18,-5.14
83.60,-4.67
84.02,-4.21
84.44,-2.51
84.86,-1.01
85.28,0.05
85.70,0.22
86.12,-0.95
86.54,-2.58
86.96,-3.08
87.38,-1.97
87.80,-0.41
88.22,-0.11
88.64,-1.44
89.06,-3.05
89.48,-3.73
89.91,-3.70
90.33,-3.70
90.75,-3.70
91.17,-3.63
91.59,-3.08
92.01,-2.74
92.43,-3.10
92.85,-3.35
93.27,-3.24
93.69,-3.47
94.11,-3.82
94.53,-3.71
94.95,-3.51
95.37,-3.33
95.79,-2.80
96.21,-2.15
96.64,-1.91
97.06,-2.09
97.48,-2.27
97.90,-3.13
98.32,-3.91
98.74,-3.99
99.16,-3.74
99.58,-3.77
100.00,-3.87
101.00,-3.63
101.52,-2.98
102.04,-2.15
102.56,-1.85
103.08,-2.28
103.61,-2.36
104.13,-1.15
104.65,-0.33
105.17,0.49
105.69,0.92
106.21,-0.04
106.73,-1.14
107.25,-1.31
107.77,-1.00
108.29,-1.48
108.82,-2.81
109.34,-3.62
109.86,-3.22
110.38,-2.19
110.90,-1.38
111.42,-1.08
111.94,-0.88
112.46,-0.61
112.98,-0.82
113.51,-1.02
114.03,-1.96
114.55,-2.07
115.07,-1.22
115.59,-0.30
116.11,0.57
116.63,1.09
117.15,0.49
117.67,-0.99
118.19,-2.29
118.72,-2.41
119.24,-1.32
119.76,-0.37
120.28,-0.88
120.80,-2.34
121.32,-2.77
121.84,-3.21
122.36,-3.15
122.88,-2.90
123.41,-2.79
123.93,-2.56
124.45,-2.21
124.97,-2.14
125.49,-2.34
126.01,-2.42
126.53,-2.42
127.05,-2.62
127.57,-2.72
128.09,-2.64
128.62,-2.86
129.14,-2.94
129.66,-3.01
130.18,-2.41
130.70,-1.44
131.22,-0.72
131.74,-0.28
132.26,-0.59
132.78,-2.05
133.31,-3.67
133.83,-4.20
134.35,-3.46
134.87,-2.05
135.39,-0.75
135.91,0.01
136.43,0.43
136.95,0.75
137.47,0.61
137.99,0.48
138.52,-0.88
139.04,-2.83
139.56,-4.22
140.08,-4.35
140.60,-3.54
141.12,-2.49
141.64,-1.46
142.16,-0.76
142.68,-0.84
143.21,-1.21
143.73,-1.04
144.25,-0.62
144.77,-0.42
145.29,0.21
145.81,0.88
146.33,1.55
146.85,2.63
147.37,2.66
147.89,2.02
148.42,1.64
148.94,1.96
149.46,2.27
149.98,1.78
150.50,1.08
151.02,1.35
151.54,2.35
152.06,2.64
152.58,1.53
153.11,-0.31
153.63,-1.13
154.15,-1.95
154.67,-3.02
155.19,-3.11
155.71,-1.92
156.23,-0.38
156.75,0.23
157.27,0.11
157.79,0.22
158.32,0.70
158.84,1.20
159.36,1.57
159.88,2.11
160.40,3.39
160.92,5.17
161.44,6.15
161.96,5.99
162.48,5.82
163.01,4.85
163.53,4.02
164.05,4.06
164.57,4.95
165.09,5.41
165.61,4.82
166.13,4.41
166.65,4.94
167.17,5.08
167.69,4.02
168.22,3.21
168.74,3.88
169.26,5.15
169.78,5.83
170.30,6.07
170.82,6.32
171.34,7.30
171.86,8.32
172.38,8.71
172.91,8.81
173.43,9.19
173.95,9.70
174.47,10.19
174.99,10.86
175.51,11.75
176.03,12.80
176.55,14.05
177.07,14.83
177.59,14.34
178.12,13.44
178.64,13.59
179.16,13.75
179.68,15.62
180.20,18.22
180.72,20.61
181.24,22.18
181.76,23.12
182.28,24.79
182.81,28.26
183.33,32.42
183.85,35.70
184.37,38.48
184.89,41.78
185.41,45.77
185.93,50.41
186.45,52.86
186.97,55.31
187.49,59.82
188.02,64.26
188.54,69.26
189.06,74.40
189.58,79.24
190.10,84.46
190.62,90.24
191.14,95.63
191.66,100.44
192.18,105.50
192.71,111.13
193.23,117.25
193.75,123.82
194.27,129.82
194.79,132.03
195.31,134.24
195.83,137.91
196.35,142.24
196.87,147.53
197.39,153.77
197.92,161.13
198.44,169.64
198.96,179.05
199.48,188.78
200.00,198.25
201.00,207.34
201.59,216.47
202.17,225.98
202.76,235.79
203.34,245.62
203.93,250.67
204.51,255.72
205.10,266.98
205.69,279.90
206.27,293.92
206.86,308.21
207.44,322.51
208.03,337.18
208.62,352.67
209.20,368.57
209.79,383.93
210.37,398.15
210.96,411.38
211.54,424.35
212.13,437.68
212.72,444.60
213.30,451.52
213.89,465.72
214.47,479.37
215.06,491.16
215.64,501.51
216.23,512.35
216.82,524.79
217.40,538.19
217.99,551.64
218.57,565.60
219.16,581.03
219.75,597.25
220.33,612.78
220.92,627.53
221.50,642.03
222.09,649.08
222.67,656.13
223.26,669.25
223.85,681.09
224.43,692.16
225.02,703.51
225.60,715.23
226.19,726.00
226.78,735.28
227.36,744.19
227.95,753.62
228.53,763.29
229.12,772.62
229.70,781.89
230.29,792.42
230.88,805.21
231.46,812.43
232.05,819.65
232.63,834.06
233.22,847.01
233.80,858.48
234.39,869.98
234.98,882.81
235.56,897.15
236.15,912.98
236.73,929.93
237.32,947.44
237.91,965.37
238.49,982.49
239.08,996.32
239.66,1005.85
240.25,1009.29
240.83,1012.72
241.42,1019.49
242.01,1027.79
242.59,1037.86
243.18,1049.28
243.76,1061.78
244.35,1075.60
244.93,1090.86
245.52,1106.31
246.11,1119.70
246.69,1130.03
247.28,1137.86
247.86,1144.22
248.45,1150.47
249.04,1157.53
249.62,1161.36
250.21,1165.19
250.79,1173.12
251.38,1181.19
251.96,1188.72
252.55,1195.54
253.14,1202.59
253.72,1210.15
254.31,1216.82
254.89,1221.03
255.48,1222.95
256.07,1223.95
256.65,1224.42
257.24,1224.26
257.82,1225.18
258.41,1229.51
258.99,1233.21
259.58,1236.92
260.17,1244.82
260.75,1251.21
261.34,1254.98
261.92,1254.60
262.51,1248.68
263.09,1237.51
263.68,1222.57
264.27,1205.19
264.85,1187.40
265.44,1172.61
266.02,1163.22
266.61,1157.72
267.20,1152.35
267.78,1148.68
268.37,1145.00
268.95,1136.38
269.54,1128.58
270.12,1122.96
270.71,1118.49
271.30,1113.19
271.88,1106.38
272.47,1098.94
273.05,1092.14
273.64,1085.81
274.22,1078.42
274.81,1069.64
275.40,1061.09
275.98,1054.14
276.57,1048.51
277.15,1045.92
277.74,1043.33
278.33,1038.06
278.91,1032.62
279.50,1027.18
280.08,1021.61
280.67,1015.39
281.25,1008.34
281.84,1000.59
282.43,992.37
283.01,983.74
283.60,974.81
284.18,966.82
284.77,961.34
285.36,958.01
285.94,955.29
286.53,953.73
287.11,952.18
287.70,948.60
288.28,945.63
288.87,944.46
289.46,944.08
290.04,941.83
290.63,936.76
291.21,930.80
291.80,925.97
292.38,922.22
292.97,918.57
293.56,913.99
294.14,908.05
294.73,901.63
295.31,895.49
295.90,892.38
296.49,889.27
297.07,882.91
297.66,877.27
298.24,872.89
298.83,868.98
299.41,864.31
300.00,859.08
301.00,854.81
301.70,852.34
302.39,850.69
303.09,848.39
303.79,845.36
304.49,842.18
305.18,838.81
305.88,837.11
306.58,835.42
307.27,833.43
307.97,833.93
308.67,835.31
309.37,834.48
310.06,830.98
310.76,827.28
311.46,825.02
312.15,823.49
312.85,821.54
313.55,819.51
314.25,818.13
314.94,816.34
315.64,812.16
316.34,805.68
317.04,802.34
317.73,799.01
318.43,793.43
319.13,788.10
319.82,781.74
320.52,773.85
321.22,764.77
321.92,755.69
322.61,747.46
323.31,739.60
324.01,731.21
324.70,721.63
325.40,711.03
326.10,700.86
326.80,691.94
327.49,683.53
328.19,679.44
328.89,675.34
329.58,667.73
330.28,660.55
330.98,653.66
331.68,646.89
332.37,639.47
333.07,631.40
333.77,624.33
334.46,619.45
335.16,615.78
335.86,611.31
336.56,605.40
337.25,598.85
337.95,592.06
338.65,588.50
339.35,584.95
340.04,578.92
340.74,575.62
341.44,573.65
342.13,570.38
342.83,566.31
343.53,563.60
344.23,562.35
344.92,561.04
345.62,558.80
346.32,555.60
347.01,551.72
347.71,547.61
348.41,543.61
349.11,540.07
349.80,538.47
350.50,536.86
351.20,533.25
351.89,529.22
352.59,525.82
353.29,523.55
353.99,521.75
354.68,519.56
355.38,516.85
356.08,514.02
356.77,511.66
357.47,510.25
358.17,509.44
358.87,508.02
359.56,505.59
360.26,502.87
360.96,501.31
361.65,499.75
362.35,495.45
363.05,490.53
363.75,486.06
364.44,481.87
365.14,477.42
365.84,472.87
366.54,468.48
367.23,464.23
367.93,460.34
368.63,457.09
369.32,454.35
370.02,452.18
370.72,450.65
371.42,449.70
372.11,448.74
372.81,445.60
373.51,442.15
374.20,439.65
374.90,438.44
375.60,438.41
376.30,438.58
376.99,437.05
377.69,433.02
378.39,427.93
379.08,423.57
379.78,420.54
380.48,418.85
381.18,418.47
381.87,419.02
382.57,419.44
383.27,419.86
383.96,420.39
384.66,419.64
385.36,416.72
386.06,412.56
386.75,409.56
387.45,408.64
388.15,408.73
388.85,408.73
389.54,408.08
390.24,406.61
390.94,404.45
391.63,401.65
392.33,398.62
393.03,395.98
393.73,394.88
394.42,393.78
395.12,392.03
395.82,390.71
396.51,389.18
397.21,387.17
397.91,384.89
398.61,381.95
399.30,378.42
400.00,375.57
401.00,373.96
401.72,372.76
402.45,371.63
403.17,370.95
403.89,370.40
404.61,369.92
405.34,369.44
406.06,368.13
406.78,366.76
407.50,365.60
408.23,364.74
408.95,363.72
409.67,362.24
410.39,361.04
411.12,361.10
411.84,362.02
412.56,362.35
413.28,361.50
414.01,360.08
414.73,358.22
415.45,355.19
416.18,353.10
416.90,351.02
417.62,347.13
418.34,344.34
419.07,341.80
419.79,338.64
420.51,334.78
421.23,329.86
421.96,324.33
422.68,320.11
423.40,317.64
424.12,315.22
424.85,312.15
425.57,309.11
426.29,306.18
427.01,303.18
427.74,301.81
428.46,300.43
429.18,298.59
429.91,297.73
430.63,296.74
431.35,294.78
432.07,292.59
432.80,291.06
433.52,289.74
434.24,288.04
434.96,286.13
435.69,284.35
436.41,282.76
437.13,281.35
437.85,280.01
438.58,278.33
439.30,277.19
440.02,276.05
440.74,273.66
441.47,271.89
442.19,270.64
442.91,269.44
443.64,268.00
444.36,265.88
445.08,262.85
445.80,259.47
446.53,256.74
447.25,255.45
447.97,255.45
448.69,255.56
449.42,255.05
450.14,254.45
450.86,253.84
451.58,251.91
452.31,249.97
453.03,249.08
453.75,248.81
454.47,248.23
455.20,247.72
455.92,248.12
456.64,249.07
457.36,249.18
458.09,248.03
458.81,246.75
459.53,246.23
460.26,246.23
460.98,246.23
461.70,246.04
462.42,245.85
463.15,244.84
463.87,243.56
464.59,242.91
465.31,242.93
466.04,242.60
466.76,241.44
467.48,239.66
468.20,237.57
468.93,235.69
469.65,234.22
470.37,232.69
471.09,230.75
471.82,228.21
472.54,225.04
473.26,223.63
473.99,222.22
474.71,221.08
475.43,221.64
476.15,222.69
476.88,223.16
477.60,222.80
478.32,221.66
479.04,219.80
479.77,217.39
480.49,214.62
481.21,211.77
481.93,209.41
482.66,208.14
483.38,207.42
484.10,206.58
484.82,205.73
485.55,202.86
486.27,200.29
486.99,198.89
487.72,198.07
488.44,197.23
489.16,196.03
489.88,194.40
490.61,192.96
491.33,192.12
492.05,191.26
492.77,189.92
493.50,188.38
494.22,186.96
494.94,185.84
495.66,185.55
496.39,185.26
497.11,185.18
497.83,185.13
498.55,184.62
499.28,183.72
500.00,183.02
501.00,182.36
502.01,181.21
503.02,180.16
504.03,179.91
505.04,179.49
506.05,177.94
507.06,175.91
508.07,174.19
509.08,172.60
510.09,171.63
511.10,170.66
512.11,168.31
513.12,166.02
514.13,164.52
515.14,164.03
516.15,164.03
517.16,164.23
518.17,164.70
519.18,165.11
520.19,164.92
521.20,163.79
522.21,161.62
523.22,158.93
524.23,157.12
525.24,157.08
526.26,157.04
527.27,157.53
528.28,157.04
529.29,155.84
530.30,154.37
531.31,152.31
532.32,150.46
533.33,150.07
534.34,150.62
535.35,150.95
536.36,150.56
537.37,149.34
538.38,147.76
539.39,146.29
540.40,144.35
541.41,142.99
542.42,141.63
543.43,139.58
544.44,139.33
545.45,139.54
546.46,138.55
547.47,136.79
548.48,135.43
549.49,134.83
550.50,134.66
551.51,134.57
552.52,134.58
553.53,134.31
554.54,132.86
555.55,130.63
556.56,129.08
557.57,128.77
558.58,128.45
559.59,128.12
560.60,128.19
561.61,128.70
562.62,128.98
563.63,128.75
564.64,128.36
565.65,127.83
566.66,127.12
567.67,126.48
568.68,125.59
569.69,124.29
570.70,123.93
571.71,125.65
572.72,127.98
573.73,128.17
574.74,128.37
575.76,126.31
576.77,123.18
577.78,120.45
578.79,118.87
579.80,118.07
580.81,117.10
581.82,116.05
582.83,115.65
583.84,115.65
584.85,115.37
585.86,114.85
586.87,114.43
587.88,114.13
588.89,114.08
589.90,114.04
590.91,113.85
591.92,112.75
592.93,110.89
593.94,109.27
594.95,108.00
595.96,106.86
596.97,106.41
597.98,106.63
598.99,106.55
600.00,106.38
601.00,106.98
602.18,107.47
603.36,106.25
604.54,103.78
605.71,102.80
606.89,101.83
608.07,100.98
609.25,100.62
610.43,100.37
611.61,100.08
612.79,99.25
613.96,97.87
615.14,96.75
616.32,96.39
617.50,96.73
618.68,97.53
619.86,98.15
621.04,98.04
622.21,97.42
623.39,96.70
624.57,96.32
625.75,95.95
626.93,95.31
628.11,94.74
629.29,93.76
630.46,92.44
631.64,91.48
632.82,90.97
634.00,90.91
635.18,91.35
636.36,91.65
637.54,91.08
638.71,90.07
639.89,89.49
641.07,89.21
642.25,88.66
643.43,88.11
644.61,85.99
645.79,84.14
646.96,83.47
648.14,83.31
649.32,82.95
650.50,82.72
651.68,83.06
652.86,83.66
654.04,83.87
655.21,83.44
656.39,82.37
657.57,80.97
658.75,79.65
659.93,78.64
661.11,78.28
662.29,77.92
663.46,77.84
664.64,78.70
665.82,79.53
667.00,78.68
668.18,76.21
669.36,74.03
670.54,73.35
671.71,73.78
672.89,74.51
674.07,75.20
675.25,75.71
676.43,75.66
677.61,74.51
678.79,72.60
679.96,71.79
681.14,70.98
682.32,69.85
683.50,68.82
684.68,68.05
685.86,67.88
687.04,67.63
688.21,66.38
689.39,64.57
690.57,63.52
691.75,63.77
692.93,64.68
694.11,65.39
695.29,65.49
696.46,64.77
697.64,64.22
698.82,63.67
700.00,63.16
701.00,63.16
702.98,62.63
704.96,61.30
706.94,59.95
708.92,59.20
710.90,58.84
712.88,58.53
714.86,58.33
716.84,58.26
718.82,58.14
720.80,57.67
722.78,56.73
724.76,55.46
726.74,54.75
728.72,54.04
730.70,52.98
732.68,52.85
734.66,52.99
736.64,52.35
738.62,51.38
740.60,50.92
742.58,50.65
744.56,50.31
746.54,50.30
748.52,50.59
750.50,50.32
752.48,49.04
754.46,47.24
756.44,46.07
758.42,46.19
760.40,46.32
762.38,47.57
764.36,48.82
766.34,49.44
768.32,49.25
770.30,48.77
772.28,48.61
774.26,48.25
776.24,47.19
778.22,46.27
780.20,45.86
782.18,45.14
784.16,43.97
786.14,42.94
788.12,42.53
790.10,42.12
792.08,41.30
794.06,40.36
796.04,39.61
798.02,39.90
800.00,41.50
801.00,42.87
803.36,42.36
805.71,40.31
808.07,38.31
810.43,37.31
812.79,37.45
815.14,38.54
817.50,39.92
819.86,40.24
822.21,39.54
824.57,38.84
826.93,36.81
829.29,35.62
831.64,35.35
834.00,35.07
836.36,34.21
838.71,33.26
841.07,32.93
843.43,33.12
845.79,33.24
848.14,33.30
850.50,33.76
852.86,34.38
855.21,34.40
857.57,33.75
859.93,33.32
862.29,32.88
864.64,31.50
867.00,29.41
869.36,27.38
871.71,26.50
874.07,27.31
876.43,29.05
878.79,29.86
881.14,28.81
883.50,26.94
885.86,25.94
888.21,26.37
890.57,27.41
892.93,28.09
895.29,28.25
897.64,28.27
900.00,28.29
901.00,28.70
904.67,29.12
908.33,28.89
912.00,28.47
915.67,28.61
919.33,28.54
923.00,27.34
926.67,25.81
930.33,24.93
934.00,24.23
937.67,23.32
941.33,22.85
945.00,23.01
948.67,23.14
952.33,23.27
956.00,23.49
959.67,23.77
963.33,23.93
967.00,23.77
970.67,23.41
974.33,22.83
978.00,21.88
981.67,20.91
985.33,20.57
989.00,20.80
992.67,21.05
996.33,21.16
1000.00,21.11
1001.00,20.35
1006.10,19.45
1011.21,18.55
1016.31,16.85
1021.41,17.00
1026.51,19.05
1031.62,21.03
1036.72,21.70
1041.82,21.42
1046.92,20.56
1052.03,19.28
1057.13,18.17
1062.23,17.81
1067.33,17.97
1072.44,17.97
1077.54,17.76
1082.64,17.34
1087.74,16.79
1092.85,16.25
1097.95,15.29
1103.05,15.75
1108.15,16.54
1113.26,16.24
1118.36,15.81
1123.46,16.31
1128.56,17.10
1133.67,17.48
1138.77,17.51
1143.87,17.38
1148.97,17.16
1154.08,16.79
1159.18,15.99
1164.28,15.41
1169.38,14.83
1174.49,14.01
1179.59,13.99
1184.69,14.46
1189.79,14.66
1194.90,14.30
1200.00,14.16
1201.00,14.96
1210.06,15.77
1219.12,15.32
1228.18,13.92
1237.24,12.77
1246.30,12.33
1255.36,12.33
1264.42,12.47
1273.48,12.59
1282.55,12.72
1291.61,12.84
1300.67,12.64
1309.73,12.59
1318.79,13.05
1327.85,13.44
1336.91,13.33
1345.97,13.08
1355.03,13.00
1364.09,12.87
1373.15,12.72
1382.21,13.11
1391.27,14.04
1400.33,14.50
1409.39,13.89
1418.45,13.39
1427.52,12.89
1436.58,12.24
1445.64,12.13
1454.70,12.56
1463.76,13.01
1472.82,12.65
1481.88,11.60
1490.94,10.76
1500.00,10.57
1501.00,10.96
1510.24,11.30
1519.48,10.77
1528.72,9.63
1537.96,8.94
1547.20,9.02
1556.44,9.10
1565.69,9.97
1574.93,11.25
1584.17,11.97
1593.41,11.30
1602.65,9.60
1611.89,7.91
1621.13,7.31
1630.37,8.49
1639.61,10.77
1648.85,12.28
1658.09,12.02
1667.33,11.06
1676.57,10.72
1685.81,10.80
1695.06,10.84
1704.30,10.89
1713.54,11.03
1722.78,10.75
1732.02,9.81
1741.26,9.09
1750.50,9.01
1759.74,8.75
1768.98,7.97
1778.22,7.54
1787.46,8.06
1796.70,8.87
1805.94,8.90
1815.19,8.04
1824.43,7.59
1833.67,8.48
1842.91,8.99
1852.15,9.49
1861.39,9.07
1870.63,7.82
1879.87,7.10
1889.11,6.98
1898.35,6.98
1907.59,7.07
1916.83,7.18
1926.07,7.01
1935.31,6.85
1944.56,7.19
1953.80,7.41
1963.04,6.64
1972.28,5.41
1981.52,4.89
1990.76,5.13
2000.00,5.36
2001.00,6.19
2018.22,6.81
2035.45,6.97
2052.67,6.75
2069.90,6.67
2087.12,7.08
2104.34,7.77
2121.57,8.22
2138.79,8.00
2156.02,7.26
2173.24,6.69
2190.47,6.59
2207.69,6.58
2224.91,6.39
2242.14,6.20
2259.36,5.92
2276.59,6.68
2293.81,8.42
2311.03,9.78
2328.26,10.01
2345.48,9.98
2362.71,10.26
2379.93,10.04
2397.16,9.13
2414.38,8.35
2431.60,7.88
2448.83,7.93
2466.05,9.02
2483.28,10.52
2500.50,10.84
2517.72,11.16
2534.95,10.60
2552.17,9.40
2569.40,8.63
2586.62,8.90
2603.84,9.24
2621.07,8.74
2638.29,8.11
2655.52,8.07
2672.74,7.96
2689.97,7.44
2707.19,7.78
2724.41,9.92
2741.64,12.27
2758.86,12.61
2776.09,11.84
2793.31,11.06
2810.53,9.24
2827.76,8.31
2844.98,8.47
2862.21,8.80
2879.43,8.55
2896.66,8.06
2913.88,7.59
2931.10,7.08
2948.33,7.25
2965.55,8.70
2982.78,10.25
3000.00,10.42
3001.00,10.00
3025.99,10.25
3050.98,10.51
3075.98,11.40
3100.97,11.21
3125.96,9.95
3150.95,8.78
3175.94,8.74
3200.93,9.90
3225.93,11.34
3250.92,12.20
3275.91,12.24
3300.90,11.54
3325.89,10.34
3350.88,9.41
3375.87,9.46
3400.87,10.16
3425.86,10.55
3450.85,10.94
3475.84,11.80
3500.83,12.77
3525.82,13.32
3550.82,12.96
3575.81,12.38
3600.80,12.75
3625.79,13.64
3650.78,13.33
3675.77,11.71
3700.77,10.96
3725.76,12.44
3750.75,14.66
3775.74,15.61
3800.73,15.56
3825.73,15.78
3850.72,16.00
3875.71,17.06
3900.70,17.76
3925.69,18.11
3950.68,18.95
3975.68,20.14
4000.67,20.64
4025.66,20.03
4050.65,18.82
4075.64,18.04
4100.63,18.26
4125.62,18.82
4150.62,18.90
4175.61,18.73
4200.60,18.73
4225.59,18.73
4250.58,18.57
4275.58,17.90
4300.57,17.07
4325.56,16.49
4350.55,15.87
4375.54,15.24
4400.53,15.48
4425.52,16.38
4450.52,16.63
4475.51,16.08
4500.50,15.83
4525.49,16.11
4550.48,15.99
4575.48,15.04
4600.47,14.56
4625.46,14.08
4650.45,13.94
4675.44,14.43
4700.43,14.91
4725.42,15.10
4750.42,15.16
4775.41,15.39
4800.40,15.63
4825.39,15.17
4850.38,13.89
4875.37,12.72
4900.37,12.27
4925.36,12.08
4950.35,12.06
4975.34,12.87
5000.33,13.65
5025.33,14.42
5050.32,15.36
5075.31,14.56
5100.30,12.67
5125.29,11.29
5150.28,10.89
5175.27,10.92
5200.27,11.32
5225.26,12.12
5250.25,12.84
5275.24,13.43
5300.23,14.62
5325.23,17.01
5350.22,20.29
5375.21,21.70
5400.20,23.12
5425.19,24.01
5450.18,22.52
5475.17,19.46
5500.17,16.04
5525.16,13.18
5550.15,11.49
5575.14,11.26
5600.13,12.55
5625.12,16.16
5650.12,23.13
5675.11,32.88
5700.10,44.11
5725.09,57.46
5750.08,74.44
5775.08,84.47
5800.07,94.50
5825.06,114.88
5850.05,132.71
5875.04,146.67
5900.03,157.19
5925.02,165.14
5950.02,170.63
5975.01,172.91
6000.00,171.58
6024.79,167.59
6049.64,162.58
6074.48,157.31
6099.32,151.90
6124.16,147.34
6149.01,145.42
6173.85,145.94
6198.69,146.47
6223.53,148.61
6248.38,150.21
6273.22,151.36
6298.06,152.46
6322.90,153.53
6347.75,154.23
6372.59,153.92
6397.43,152.21
6422.27,149.43
6447.12,145.82
6471.96,141.76
6496.80,138.41
6521.65,136.76
6546.49,136.40
6571.33,136.25
6596.17,136.10
6621.02,135.12
6645.86,133.44
6670.70,130.99
6695.54,127.61
6720.39,123.75
6745.23,120.29
6770.07,118.07
6794.91,117.02
6819.76,115.86
6844.60,113.80
6869.44,111.38
6894.28,109.35
6919.13,107.77
6943.97,106.81
6968.81,105.86
6993.65,102.69
7018.50,98.67
7043.34,95.48
7068.18,93.75
7093.02,92.34
7117.87,90.33
7142.71,87.76
7167.55,84.89
7192.39,81.73
7217.24,78.03
7242.08,73.89
7266.92,70.43
7291.77,68.51
7316.61,67.61
7341.45,67.04
7366.29,66.48
7391.14,64.49
7415.98,62.53
7440.82,61.76
7465.66,61.71
7490.51,60.79
7515.35,58.56
7540.19,56.26
7565.03,55.13
7589.88,55.43
7614.72,56.90
7639.56,58.80
7664.40,60.01
7689.25,59.96
7714.09,59.29
7738.93,59.19
7763.77,59.10
7788.62,59.57
7813.46,59.52
7838.30,57.94
7863.14,55.05
7887.99,51.80
7912.83,49.22
7937.67,47.64
7962.51,46.31
7987.36,44.50
8012.20,42.31
8037.04,40.25
8061.89,39.02
8086.73,39.20
8111.57,39.56
8136.41,39.92
8161.26,39.28
8186.10,37.31
8210.94,35.95
8235.78,35.75
8260.63,35.29
8285.47,33.61
8310.31,31.25
8335.15,29.62
8360.00,29.40
8384.84,29.62
8409.68,29.18
8434.52,28.51
8459.37,28.60
8484.21,29.68
8509.05,30.52
8533.89,31.35
8558.74,32.95
8583.58,33.76
8608.42,33.85
8633.26,33.90
8658.11,33.68
8682.95,32.18
8707.79,29.63
8732.63,27.55
8757.48,26.93
8782.32,27.82
8807.16,29.47
8832.00,30.46
8856.85,30.08
8881.69,29.22
8906.53,29.03
8931.37,28.85
8956.22,28.55
8981.06,27.32
9005.90,25.24
9030.75,23.47
9055.59,22.55
9080.43,22.20
9105.27,22.63
9130.12,23.89
9154.96,25.06
9179.80,25.09
9204.64,23.70
9229.49,21.72
9254.33,20.37
9279.17,19.92
9304.01,19.47
9328.86,17.90
9353.70,16.17
9378.54,15.97
9403.38,17.57
9428.23,19.43
9453.07,20.43
9477.91,20.95
9502.75,21.39
9527.60,21.57
9552.44,21.49
9577.28,21.23
9602.12,20.79
9626.97,20.38
9651.81,19.99
9676.65,19.63
9701.50,19.27
9726.34,18.46
9751.18,18.27
9776.02,18.46
9800.87,18.19
9825.71,17.72
9850.55,17.36
9875.39,16.49
9900.24,15.33
9925.08,14.88
9949.92,14.58
9974.76,13.39
9999.61,12.35
10024.45,13.14
10049.29,15.16
10074.13,15.67
10098.98,16.19
10123.82,15.66
10148.66,15.11
10173.50,15.22
10198.35,14.73
10223.19,13.25
10248.03,11.89
10272.87,10.92
10297.72,9.72
10322.56,8.72
10347.40,9.14
10372.25,11.04
10397.09,12.95
10421.93,13.47
10446.77,13.09
10471.62,12.72
10496.46,11.96
10521.30,12.01
10546.14,12.20
10570.99,11.71
10595.83,11.18
10620.67,11.32
10645.51,11.46
10670.36,11.07
10695.20,10.65
10720.04,10.41
10744.88,10.15
10769.73,9.79
10794.57,9.07
10819.41,7.93
10844.25,7.55
10869.10,7.16
10893.94,7.26
10918.78,7.63
10943.62,7.99
10968.47,8.71
10993.31,9.50
11018.15,9.54
11043.00,8.64
11067.84,7.30
11092.68,6.22
11117.52,6.19
11142.37,6.91
11167.21,7.13
11192.05,6.63
11216.89,6.28
11241.74,6.34
11266.58,6.39
11291.42,6.62
11316.26,6.95
11341.11,7.47
11365.95,7.97
11390.79,8.26
11415.63,8.48
11440.48,8.72
11465.32,8.50
11490.16,7.48
11515.00,6.61
11539.85,6.95
11564.69,7.96
11589.53,8.37
11614.37,8.03
11639.22,8.00
11664.06,7.98
11688.90,8.79
11713.74,9.68
11738.59,10.02
11763.43,10.48
11788.27,11.54
11813.12,12.38
11837.96,12.29
11862.80,11.82
11887.64,11.38
11912.49,10.46
11937.33,9.22
11962.17,8.85
11987.01,9.72
12011.86,10.32
12036.70,10.91
12061.54,11.49
12086.38,11.33
12111.23,10.47
12136.07,9.02
12160.91,7.69
12185.75,7.03
12210.60,6.77
12235.44,6.64
12260.28,6.83
12285.12,7.45
12309.97,8.38
12334.81,8.87
12359.65,8.05
12384.49,6.28
12409.34,5.65
12434.18,5.01
12459.02,4.92
12483.86,5.78
12508.71,7.26
12533.55,8.81
12558.39,9.68
12583.24,9.59
12608.08,8.82
12632.92,8.14
12657.76,8.21
12682.61,8.73
12707.45,8.71
12732.29,7.82
12757.13,6.45
12781.98,5.42
12806.82,5.44
12831.66,5.46
12856.50,6.26
12881.35,6.90
12906.19,7.16
12931.03,7.30
12955.87,7.19
12980.72,6.51
13005.56,5.63
13030.40,5.58
13055.24,6.49
13080.09,7.22
13104.93,6.91
13129.77,5.72
13154.61,4.28
13179.46,3.66
13204.30,3.03
13229.14,2.17
13253.98,2.22
13278.83,3.86
13303.67,6.35
13328.51,7.52
13353.35,6.72
13378.20,5.47
13403.04,4.67
13427.88,3.98
13452.73,3.48
13477.57,3.55
13502.41,4.11
13527.25,4.94
13552.10,5.42
13576.94,5.08
13601.78,4.73
13626.62,3.22
13651.47,2.28
13676.31,2.56
13701.15,3.75
13725.99,5.34
13750.84,6.49
13775.68,6.51
13800.52,5.60
13825.36,4.67
13850.21,4.62
13875.05,5.52
13899.89,6.38
13924.73,6.40
13949.58,5.88
13974.42,5.73
13999.26,5.57
14024.10,5.48
14048.95,5.13
14073.79,4.66
14098.63,4.49
14123.47,4.60
14148.32,4.94
14173.16,5.54
14198.00,5.97
14222.85,5.83
14247.69,5.22
14272.53,4.39
14297.37,3.69
14322.22,3.74
14347.06,4.13
14371.90,4.52
14396.74,5.19
14421.59,5.41
14446.43,5.61
14471.27,5.97
14496.11,5.97
14520.96,5.26
14545.80,4.48
14570.64,4.55
14595.48,5.34
14620.33,5.56
14645.17,4.25
14670.01,2.12
14694.85,0.54
14719.70,0.03
14744.54,0.20
14769.38,0.37
14794.22,1.25
14819.07,2.43
14843.91,3.60
14868.75,4.15
14893.59,4.01
14918.44,3.77
14943.28,3.48
14968.12,2.91
14992.97,2.65
15017.81,2.91
15042.65,2.71
15067.49,1.18
15092.34,-1.09
15117.18,-2.63
15142.02,-2.56
15166.86,-2.49
15191.71,-0.82
15216.55,1.10
15241.39,1.69
15266.23,1.02
15291.08,1.02
15315.92,2.53
15340.76,4.10
15365.60,4.56
15390.45,4.31
15415.29,3.70
15440.13,2.89
15464.97,2.66
15489.82,3.61
15514.66,5.20
15539.50,5.79
15564.34,6.37
15589.19,6.62
15614.03,6.28
15638.87,5.98
15663.71,6.08
15688.56,6.28
15713.40,5.73
15738.24,4.20
15763.08,3.03
15787.93,3.34
15812.77,4.26
15837.61,4.46
15862.46,3.98
15887.30,3.53
15912.14,3.50
15936.98,3.48
15961.83,3.95
15986.67,4.77
16011.51,5.21
16036.35,4.57
16061.20,3.30
16086.04,2.57
16110.88,2.71
16135.72,2.63
16160.57,1.30
16185.41,-0.24
16210.25,-0.26
16235.09,0.82
16259.94,1.32
16284.78,0.93
16309.62,0.57
16334.46,0.22
16359.31,-0.62
16384.15,-1.07
16408.99,0.00
16433.84,2.22
16458.68,3.50
16483.52,3.49
16508.36,3.81
16533.21,4.59
16558.05,4.63
16582.89,4.00
16607.73,3.34
16632.58,2.97
16657.42,3.20
16682.26,3.37
16707.10,3.12
16731.95,2.86
16756.79,2.75
16781.63,3.53
16806.47,3.87
16831.32,3.09
16856.16,1.90
16881.00,1.07
16905.84,0.68
16930.69,0.32
16955.53,0.17
16980.37,1.28
17005.21,3.76
17030.06,5.71
17054.90,5.45
17079.74,4.63
17104.58,3.81
17129.43,2.85
17154.27,3.15
17179.11,3.69
17203.96,3.82
17228.80,3.69
17253.64,3.37
17278.48,2.69
17303.33,1.83
17328.17,0.91
17353.01,-0.04
17377.85,-0.92
17402.70,-1.70
17427.54,-2.20
17452.38,-2.06
17477.22,-1.76
17502.07,-1.47
17526.91,-1.08
17551.75,-1.06
17576.59,-1.06
17601.44,-0.87
17626.28,-0.56
17651.12,-0.34
17675.96,-0.23
17700.81,0.19
17725.65,1.12
17750.49,2.37
17775.33,3.47
17800.18,3.58
17825.02,2.68
17849.86,1.92
17874.71,1.68
17899.55,1.45
17924.39,0.51
17949.23,-0.58
17974.07,-1.04
17998.92,-0.68
18023.76,0.49
18048.60,1.88
18073.45,2.40
18098.29,2.12
18123.13,1.95
18147.97,1.96
18172.82,1.74
18197.66,1.07
18222.50,-0.20
18247.34,-0.90
18272.19,-1.60
18297.03,-1.88
18321.87,-0.51
18346.71,1.26
18371.56,1.96
18396.40,1.52
18421.24,0.47
18446.08,-0.65
18470.93,-1.15
18495.77,-0.90
18520.61,-0.45
18545.46,-0.12
