Size (bp),Intensity
0.58,902.98
1.00,722.12
2.00,468.54
2.42,260.72
2.84,141.56
3.26,89.25
3.68,69.61
4.10,62.62
4.52,60.32
4.94,59.44
5.36,58.59
5.79,57.74
6.21,54.07
6.63,49.39
7.05,45.26
7.47,41.45
7.89,36.62
8.31,30.73
8.73,25.05
9.15,20.74
9.57,18.02
9.99,16.14
10.41,14.45
10.83,13.33
11.25,13.17
11.67,13.43
12.09,13.18
12.52,12.00
12.94,10.21
13.36,8.31
13.78,7.56
14.20,6.81
14.62,6.08
15.04,6.20
15.46,6.91
15.88,7.90
16.30,9.29
16.72,11.27
17.14,13.13
17.56,14.05
17.98,14.39
18.40,14.68
18.82,14.71
19.24,14.55
19.67,14.54
20.09,14.28
20.51,13.69
20.93,13.66
21.35,14.68
21.77,15.90
22.19,16.15
22.61,16.40
23.03,16.73
23.45,17.80
23.87,19.16
24.29,19.95
24.71,20.91
25.13,23.25
25.55,26.50
25.97,29.01
26.39,29.85
26.82,29.08
27.24,27.39
27.66,25.56
28.08,24.11
28.50,23.87
28.92,25.51
29.34,28.38
29.76,31.55
30.18,34.60
30.60,37.32
31.02,38.83
31.44,40.34
31.86,44.61
32.28,49.28
32.70,52.51
33.12,53.96
33.55,54.85
33.97,56.33
34.39,58.55
34.81,60.63
35.23,61.61
35.65,62.06
36.07,64.70
36.49,72.85
36.91,88.38
37.33,110.55
37.75,135.07
38.17,154.61
38.59,163.23
39.01,161.01
39.43,157.18
39.85,153.34
40.27,146.52
40.70,144.82
41.12,149.35
41.54,158.28
41.96,167.94
42.38,173.75
42.80,172.00
43.22,162.59
43.64,149.62
44.06,138.09
44.48,131.22
44.90,131.47
45.32,141.70
45.74,164.72
46.16,200.40
46.58,240.45
47.00,268.29
47.42,268.88
47.85,253.90
48.27,238.93
48.69,188.99
49.11,136.83
49.53,96.23
49.95,70.54
50.37,55.67
50.79,46.60
51.21,40.59
51.63,36.44
52.05,33.50
52.47,31.33
52.89,29.47
53.31,27.61
53.73,26.06
54.15,25.12
54.58,24.16
55.00,22.38
55.42,19.89
55.84,17.47
56.26,16.53
56.68,15.59
57.10,14.25
57.52,13.46
57.94,13.43
58.36,13.87
58.78,14.19
59.20,14.22
59.62,13.99
60.04,13.48
60.46,12.89
60.88,12.53
61.30,12.62
61.73,12.99
62.15,13.18
62.57,12.86
62.99,11.95
63.41,10.55
63.83,9.03
64.25,7.79
64.67,7.43
65.09,7.07
65.51,6.98
65.93,7.32
66.35,7.83
66.77,8.16
67.19,7.69
67.61,6.67
68.03,6.45
68.45,7.31
68.88,7.71
69.30,6.63
69.72,5.02
70.14,4.31
70.56,4.58
70.98,4.64
71.40,3.98
71.82,3.65
72.24,4.02
72.66,3.88
73.08,3.56
73.50,3.24
73.92,3.56
74.34,4.94
74.76,6.29
75.18,7.23
75.61,7.74
76.03,7.82
76.45,7.54
76.87,7.07
77.29,6.80
77.71,6.92
78.13,7.19
78.55,7.45
78.97,7.54
79.39,7.01
79.81,5.79
80.23,4.63
80.65,4.49
81.07,5.47
81.49,6.18
81.91,6.89
82.33,8.23
82.76,8.99
83.18,8.40
83.60,6.58
84.02,4.72
84.44,3.30
84.86,2.47
85.28,3.20
85.70,5.40
86.12,7.12
86.54,7.12
86.96,5.97
87.38,4.74
87.80,4.02
88.22,3.97
88.64,4.37
89.06,4.70
89.48,4.56
89.91,4.35
90.33,4.58
90.75,4.80
91.17,5.61
91.59,6.11
92.01,6.86
92.43,8.34
92.85,9.34
93.27,8.74
93.69,7.23
94.11,6.15
94.53,6.18
94.95,6.96
95.37,7.42
95.79,6.89
96.21,5.92
96.64,5.40
97.06,5.09
97.48,4.22
97.90,3.14
98.32,2.94
98.74,3.49
99.16,4.05
99.58,5.73
100.00,6.62
101.00,6.12
101.52,5.23
102.04,4.85
102.56,4.44
103.08,3.56
103.61,2.88
104.13,2.87
104.65,3.39
105.17,4.01
105.69,4.20
106.21,3.58
106.73,2.32
107.25,0.91
107.77,0.25
108.29,1.23
108.82,3.36
109.34,4.00
109.86,4.65
110.38,4.37
110.90,3.72
111.42,3.38
111.94,3.03
112.46,2.78
112.98,3.09
113.51,4.45
114.03,6.51
114.55,7.84
115.07,7.74
115.59,6.83
116.11,5.60
116.63,4.33
117.15,3.33
117.67,2.39
118.19,1.53
118.72,1.43
119.24,2.43
119.76,3.16
120.28,3.90
120.80,4.77
121.32,4.56
121.84,3.81
122.36,3.29
122.88,3.28
123.41,3.45
123.93,3.30
124.45,2.82
124.97,2.31
125.49,1.75
126.01,1.01
126.53,0.45
127.05,0.21
127.57,0.09
128.09,0.15
128.62,0.68
129.14,1.53
129.66,2.14
130.18,2.27
130.70,2.39
131.22,2.92
131.74,3.56
132.26,3.27
132.78,2.37
133.31,1.97
133.83,1.92
134.35,1.66
134.87,1.94
135.39,3.42
135.91,4.82
136.43,4.76
136.95,3.96
137.47,3.52
137.99,3.03
138.52,2.06
139.04,1.14
139.56,0.97
140.08,1.74
140.60,2.18
141.12,2.62
141.64,2.44
142.16,1.66
142.68,1.50
143.21,1.86
143.73,1.75
144.25,0.97
144.77,0.40
145.29,0.74
145.81,1.23
146.33,1.16
146.85,1.55
147.37,2.86
147.89,3.69
148.42,3.58
148.94,4.01
149.46,5.41
149.98,6.21
150.50,5.49
151.02,4.86
151.54,4.24
152.06,3.36
152.58,2.39
153.11,1.06
153.63,0.39
154.15,1.09
154.67,2.44
155.19,3.08
155.71,2.39
156.23,1.42
156.75,1.48
157.27,2.23
157.79,2.45
158.32,1.67
158.84,0.63
159.36,0.68
159.88,2.02
160.40,3.45
160.92,4.14
161.44,4.34
161.96,4.36
162.48,4.39
163.01,4.15
163.53,3.94
164.05,4.82
164.57,7.14
165.09,9.53
165.61,9.97
166.13,8.23
166.65,6.17
167.17,5.45
167.69,6.73
168.22,10.08
168.74,14.57
169.26,18.39
169.78,20.16
170.30,19.28
170.82,15.87
171.34,11.06
171.86,6.94
172.38,5.94
172.91,4.93
173.43,4.36
173.95,3.99
174.47,3.62
174.99,3.54
175.51,3.26
176.03,2.27
176.55,1.34
177.07,1.49
177.59,2.24
178.12,2.42
178.64,2.22
179.16,2.23
179.68,2.21
180.20,2.35
180.72,3.43
181.24,4.76
181.76,4.68
182.28,3.06
182.81,2.14
183.33,1.22
183.85,0.09
184.37,-0.13
184.89,0.46
185.41,1.62
185.93,2.86
186.45,3.86
186.97,4.50
187.49,4.41
188.02,3.18
188.54,1.42
189.06,0.43
189.58,0.80
190.10,1.79
190.62,2.36
191.14,2.20
191.66,1.83
192.18,2.31
192.71,3.87
193.23,4.46
193.75,5.04
194.27,4.71
194.79,3.66
195.31,3.14
195.83,3.45
196.35,4.14
196.87,4.84
197.39,5.35
197.92,5.12
198.44,3.99
198.96,2.90
199.48,2.36
200.00,1.97
201.00,1.73
201.59,1.86
202.17,1.62
202.76,0.63
203.34,-0.09
203.93,0.40
204.51,0.96
205.10,1.52
205.69,2.02
206.27,1.72
206.86,1.67
207.44,2.53
208.03,3.71
208.62,4.15
209.20,3.65
209.79,3.18
210.37,3.13
210.96,2.50
211.54,0.75
212.13,-1.07
212.72,-1.55
213.30,-0.29
213.89,1.94
214.47,3.55
215.06,3.58
215.64,2.70
216.23,2.38
216.82,2.06
217.40,2.15
217.99,2.78
218.57,3.04
219.16,2.41
219.75,1.71
220.33,1.75
220.92,2.23
221.50,2.79
222.09,3.40
222.67,3.46
223.26,2.60
223.85,1.65
224.43,1.43
225.02,1.70
225.60,1.83
226.19,1.48
226.78,0.81
227.36,0.45
227.95,0.83
228.53,1.21
229.12,2.90
229.70,4.05
230.29,3.74
230.88,2.56
231.46,1.50
232.05,0.93
232.63,1.04
233.22,1.77
233.80,2.66
234.39,3.38
234.98,4.05
235.56,4.67
236.15,4.75
236.73,3.92
237.32,2.62
237.91,1.65
238.49,1.35
239.08,1.52
239.66,2.02
240.25,2.55
240.83,3.08
241.42,4.65
242.01,5.75
242.59,5.32
243.18,4.04
243.76,3.46
244.35,3.47
244.93,2.74
245.52,1.41
246.11,0.89
246.69,1.25
247.28,1.37
247.86,1.16
248.45,1.35
249.04,2.14
249.62,3.24
250.21,3.73
250.79,2.92
251.38,1.75
251.96,1.67
252.55,1.60
253.14,2.12
253.72,2.30
254.31,2.43
254.89,3.00
255.48,3.75
256.07,4.36
256.65,4.92
257.24,5.81
257.82,7.30
258.41,8.82
258.99,9.44
259.58,9.44
260.17,9.78
260.75,10.45
261.34,10.56
261.92,9.79
262.51,8.60
263.09,7.29
263.68,6.60
264.27,5.91
264.85,5.00
265.44,5.64
266.02,8.28
266.61,11.57
267.20,13.56
267.78,13.99
268.37,14.19
268.95,14.83
269.54,15.46
270.12,15.95
270.71,16.86
271.30,18.32
271.88,20.32
272.47,23.01
273.05,26.02
273.64,28.64
274.22,30.88
274.81,33.56
275.40,35.50
275.98,37.44
276.57,42.78
277.15,49.95
277.74,58.98
278.33,69.69
278.91,83.71
279.50,104.02
280.08,131.28
280.67,161.69
281.25,188.82
281.84,207.64
282.43,217.35
283.01,221.30
283.60,223.63
284.18,226.19
284.77,228.64
285.36,230.01
285.94,229.82
286.53,229.01
287.11,229.15
287.70,229.29
288.28,231.08
288.87,232.97
289.46,232.55
290.04,227.30
290.63,216.11
291.21,200.70
291.80,184.29
292.38,168.51
292.97,153.12
293.56,138.08
294.14,123.92
294.73,110.89
295.31,99.01
295.90,88.67
296.49,80.26
297.07,72.98
297.66,65.29
298.24,57.00
298.83,53.15
299.41,49.30
300.00,43.28
301.00,39.73
301.70,39.14
302.39,41.09
303.09,44.27
303.79,47.54
304.49,50.33
305.18,51.61
305.88,50.02
306.58,46.14
307.27,42.25
307.97,39.39
308.67,37.21
309.37,35.77
310.06,34.99
310.76,34.02
311.46,32.83
312.15,32.56
312.85,34.18
313.55,36.28
314.25,38.39
314.94,45.21
315.64,52.21
316.34,55.24
317.04,52.52
317.73,45.70
318.43,37.23
319.13,29.11
319.82,22.85
320.52,18.41
321.22,14.33
321.92,10.16
322.61,7.14
323.31,6.09
324.01,6.53
324.70,7.90
325.40,9.49
326.10,10.06
326.80,9.16
327.49,8.40
328.19,7.65
328.89,6.32
329.58,5.38
330.28,4.87
330.98,4.83
331.68,5.01
332.37,5.20
333.07,5.18
333.77,4.61
334.46,3.47
335.16,2.45
335.86,2.22
336.56,2.50
337.25,2.90
337.95,3.46
338.65,3.73
339.35,3.38
340.04,3.16
340.74,3.22
341.44,2.98
342.13,2.73
342.83,1.70
343.53,0.98
344.23,1.04
344.92,1.60
345.62,1.94
346.32,1.67
347.01,1.11
347.71,0.67
348.41,0.62
349.11,1.10
349.80,1.73
350.50,2.05
351.20,2.33
351.89,2.78
352.59,3.11
353.29,3.03
353.99,2.56
354.68,2.15
355.38,2.24
356.08,2.34
356.77,2.71
357.47,2.44
358.17,1.82
358.87,1.63
359.56,1.89
360.26,2.31
360.96,2.65
361.65,2.46
362.35,1.80
363.05,1.65
363.75,2.58
364.44,3.92
365.14,4.50
365.84,3.97
366.54,3.00
367.23,2.37
367.93,2.40
368.63,2.91
369.32,3.18
370.02,3.44
370.72,3.78
371.42,4.14
372.11,4.15
372.81,2.85
373.51,0.71
374.20,-0.09
374.90,1.15
375.60,2.41
376.30,2.27
376.99,1.72
377.69,2.01
378.39,2.85
379.08,3.26
379.78,2.96
380.48,2.54
381.18,2.22
381.87,1.44
382.57,0.12
383.27,-0.30
383.96,-0.72
384.66,-0.49
385.36,0.35
386.06,1.05
386.75,0.94
387.45,-0.04
388.15,-0.72
388.85,0.06
389.54,1.81
390.24,3.01
390.94,2.85
391.63,2.12
392.33,1.91
393.03,1.89
393.73,1.35
394.42,0.97
395.12,1.47
395.82,1.95
396.51,1.43
397.21,0.95
397.91,0.46
398.61,0.15
399.30,0.36
400.00,0.16
401.00,-0.36
401.72,-0.05
402.45,1.43
403.17,3.21
403.89,4.59
404.61,5.35
405.34,4.99
406.06,3.47
406.78,2.06
407.50,1.72
408.23,2.06
408.95,2.48
409.67,2.65
410.39,2.33
411.12,1.72
411.84,1.20
412.56,0.97
413.28,0.73
414.01,0.31
414.73,0.45
415.45,1.17
416.18,1.60
416.90,1.49
417.62,1.69
418.34,2.64
419.07,3.45
419.79,3.23
420.51,2.31
421.23,1.35
421.96,0.59
422.68,0.33
423.40,0.88
424.12,1.66
424.85,1.89
425.57,1.81
426.29,2.21
427.01,2.71
427.74,3.20
428.46,4.15
429.18,4.35
429.91,3.58
430.63,2.70
431.35,2.70
432.07,3.31
432.80,3.78
433.52,3.98
434.24,3.95
434.96,3.79
435.69,3.96
436.41,4.22
437.13,3.62
437.85,2.15
438.58,0.81
439.30,0.32
440.02,0.84
440.74,2.15
441.47,3.00
442.19,3.85
442.91,5.28
443.64,5.52
444.36,4.42
445.08,3.53
445.80,4.10
446.53,5.38
447.25,6.21
447.97,6.61
448.69,6.61
449.42,5.61
450.14,3.86
450.86,2.39
451.58,1.43
452.31,0.66
453.03,0.10
453.75,-0.14
454.47,0.10
455.20,0.94
455.92,1.56
456.64,2.19
457.36,3.46
458.09,4.56
458.81,5.34
459.53,5.69
460.26,5.58
460.98,5.10
461.70,4.61
462.42,4.59
463.15,4.90
463.87,4.85
464.59,4.16
465.31,3.18
466.04,2.54
466.76,2.72
467.48,3.34
468.20,3.50
468.93,2.97
469.65,2.43
470.37,2.56
471.09,2.70
471.82,3.55
472.54,3.85
473.26,3.38
473.99,3.45
474.71,4.64
475.43,5.61
476.15,5.28
476.88,4.41
477.60,3.96
478.32,3.74
479.04,3.64
479.77,3.78
480.49,3.51
481.21,2.53
481.93,1.96
482.66,2.49
483.38,2.85
484.10,1.97
484.82,1.31
485.55,0.64
486.27,-0.02
486.99,0.22
487.72,0.97
488.44,1.78
489.16,2.56
489.88,3.27
490.61,3.52
491.33,3.30
492.05,3.38
492.77,4.03
493.50,4.34
494.22,3.31
494.94,1.26
495.66,-0.34
496.39,-0.53
497.11,0.19
497.83,0.88
498.55,1.22
499.28,1.33
500.00,1.43
501.00,2.04
502.01,3.24
503.02,4.30
504.03,4.47
505.04,4.19
506.05,4.42
507.06,5.01
508.07,4.79
509.08,3.48
510.09,1.96
511.10,0.87
512.11,0.33
513.12,0.33
514.13,0.55
515.14,0.92
516.15,1.48
517.16,1.62
518.17,1.02
519.18,0.32
520.19,0.21
521.20,0.10
522.21,0.60
523.22,1.73
524.23,2.87
525.24,3.28
526.26,2.92
527.27,2.60
528.28,2.88
529.29,3.00
530.30,2.33
531.31,1.77
532.32,2.26
533.33,3.43
534.34,4.24
535.35,3.81
536.36,2.13
537.37,0.55
538.38,0.03
539.39,0.05
540.40,0.13
541.41,0.22
542.42,1.04
543.43,2.39
544.44,3.21
545.45,3.07
546.46,2.63
547.47,2.39
548.48,1.99
549.49,1.36
550.50,0.92
551.51,0.56
552.52,0.29
553.53,0.29
554.54,-0.26
555.55,-1.93
556.56,-3.58
557.57,-3.75
558.58,-2.36
559.59,-0.35
560.60,0.48
561.61,1.31
562.62,2.21
563.63,2.43
564.64,1.72
565.65,-0.25
566.66,-2.55
567.67,-3.32
568.68,-2.33
569.69,-1.37
570.70,-1.37
571.71,-1.53
572.72,-1.29
573.73,-0.92
574.74,-0.41
575.76,0.20
576.77,0.57
577.78,0.71
578.79,0.98
579.80,1.77
580.81,2.35
581.82,2.92
582.83,3.36
583.84,2.22
584.85,0.11
585.86,-1.15
586.87,-0.33
587.88,1.37
588.89,1.57
589.90,-0.15
590.91,-1.80
591.92,-1.91
592.93,-0.78
593.94,1.10
594.95,3.18
595.96,4.32
596.97,4.36
597.98,4.14
598.99,3.83
600.00,3.41
601.00,3.33
602.18,3.25
603.36,2.82
604.54,1.18
605.71,-0.84
606.89,-1.49
608.07,-0.92
609.25,-0.42
610.43,-0.30
611.61,-0.22
612.79,-0.33
613.96,-0.98
615.14,-2.02
616.32,-2.59
617.50,-1.97
618.68,-0.97
619.86,-0.75
621.04,-0.94
622.21,-0.69
623.39,-0.15
624.57,0.05
625.75,0.24
626.93,0.38
628.11,0.30
629.29,0.14
630.46,0.31
631.64,0.70
632.82,0.40
634.00,-0.48
635.18,-0.74
636.36,-0.56
637.54,-0.97
638.71,-1.64
639.89,-1.41
641.07,-0.19
642.25,0.64
643.43,-0.15
644.61,-2.02
645.79,-3.34
646.96,-2.89
648.14,-0.75
649.32,0.51
650.50,1.77
651.68,3.25
652.86,3.32
654.04,2.43
655.21,1.18
656.39,0.08
657.57,-0.39
658.75,-0.12
659.93,0.22
661.11,0.34
662.29,0.96
663.46,2.21
664.64,3.29
665.82,3.91
667.00,4.02
668.18,3.00
669.36,0.92
670.54,-0.96
671.71,-1.94
672.89,-2.18
674.07,-2.41
675.25,-2.18
676.43,-0.79
677.61,0.93
678.79,1.74
679.96,1.53
681.14,0.92
682.32,0.34
683.50,-0.04
684.68,-0.35
685.86,-0.93
687.04,-1.56
688.21,-1.40
689.39,-0.14
690.57,1.25
691.75,1.53
692.93,1.03
694.11,1.02
695.29,1.80
696.46,2.22
697.64,2.64
698.82,2.95
700.00,2.59
701.00,1.76
702.98,1.12
704.96,0.99
706.94,0.40
708.92,-1.14
710.90,-1.98
712.88,-1.01
714.86,0.66
716.84,1.73
718.82,1.98
720.80,1.42
722.78,0.12
724.76,-1.20
726.74,-1.54
728.72,-0.95
730.70,-0.56
732.68,-0.71
734.66,-0.86
736.64,-0.88
738.62,0.12
740.60,1.48
742.58,2.16
744.56,1.82
746.54,0.77
748.52,-0.31
750.50,-0.81
752.48,-0.43
754.46,0.70
756.44,1.73
758.42,1.96
760.40,1.80
762.38,1.75
764.36,1.36
766.34,0.19
768.32,-1.36
770.30,-2.16
772.28,-1.74
774.26,-1.32
776.24,0.33
778.22,1.14
780.20,0.89
782.18,0.44
784.16,0.17
786.14,0.01
788.12,-0.16
790.10,-0.65
792.08,-1.38
794.06,-1.64
796.04,-1.22
798.02,-0.64
800.00,-0.25
801.00,-0.60
803.36,-2.05
805.71,-3.73
808.07,-4.29
810.43,-3.48
812.79,-2.84
815.14,-2.20
817.50,-1.45
819.86,-1.31
822.21,-1.05
824.57,-0.33
826.93,-0.01
829.29,-0.73
831.64,-1.62
834.00,-1.54
836.36,-0.62
838.71,0.22
841.07,0.45
843.43,0.06
845.79,-0.96
848.14,-2.17
850.50,-2.71
852.86,-2.62
855.21,-2.56
857.57,-2.67
859.93,-2.71
862.29,-2.75
864.64,-2.69
867.00,-2.52
869.36,-2.49
871.71,-2.61
874.07,-2.53
876.43,-2.27
878.79,-2.03
881.14,-1.77
883.50,-1.35
885.86,-1.12
888.21,-1.53
890.57,-2.12
892.93,-2.12
895.29,-1.87
897.64,-2.14
900.00,-2.69
901.00,-3.04
904.67,-3.44
908.33,-3.98
912.00,-3.98
915.67,-3.98
919.33,-3.23
923.00,-2.19
926.67,-1.05
930.33,0.04
934.00,0.29
937.67,-0.84
941.33,-2.31
945.00,-2.78
948.67,-2.56
952.33,-2.67
956.00,-3.19
959.67,-3.77
963.33,-4.07
967.00,-3.66
970.67,-2.76
974.33,-2.04
978.00,-2.15
981.67,-3.61
985.33,-4.65
989.00,-5.69
992.67,-6.57
996.33,-5.65
1000.00,-3.91
1001.00,-2.32
1006.10,-1.29
1011.21,-0.93
1016.31,-1.06
1021.41,-1.19
1026.51,-0.96
1031.62,-0.76
1036.72,-1.04
1041.82,-1.15
1046.92,-0.40
1052.03,0.44
1057.13,0.39
1062.23,-0.35
1067.33,-1.07
1072.44,-1.30
1077.54,-1.15
1082.64,-1.01
1087.74,-0.62
1092.85,-0.43
1097.95,-0.40
1103.05,-0.66
1108.15,-1.25
1113.26,-1.94
1118.36,-2.65
1123.46,-3.32
1128.56,-3.27
1133.67,-1.79
1138.77,0.49
1143.87,2.17
1148.97,2.78
1154.08,2.32
1159.18,0.84
1164.28,-0.84
1169.38,-1.85
1174.49,-2.46
1179.59,-2.74
1184.69,-3.01
1189.79,-3.34
1194.90,-3.20
1200.00,-2.39
1201.00,-1.35
1210.06,-1.15
1219.12,-2.07
1228.18,-3.03
1237.24,-2.83
1246.30,-1.64
1255.36,-0.80
1264.42,-1.03
1273.48,-1.60
1282.55,-1.62
1291.61,-1.32
1300.67,-1.10
1309.73,-0.84
1318.79,-0.81
1327.85,-1.31
1336.91,-1.47
1345.97,-1.63
1355.03,-1.40
1364.09,-1.62
1373.15,-2.71
1382.21,-3.42
1391.27,-2.65
1400.33,-1.16
1409.39,-0.33
1418.45,-0.21
1427.52,0.21
1436.58,0.77
1445.64,0.23
1454.70,-1.29
1463.76,-2.14
1472.82,-1.76
1481.88,-1.25
1490.94,-1.33
1500.00,-1.52
1501.00,-1.15
1510.24,-0.76
1519.48,-0.37
1528.72,0.16
1537.96,0.36
1547.20,0.69
1556.44,0.98
1565.69,0.62
1574.93,-0.16
1584.17,-0.58
1593.41,-0.84
1602.65,-1.46
1611.89,-1.93
1621.13,-1.70
1630.37,-1.08
1639.61,-0.11
1648.85,1.07
1658.09,1.45
1667.33,0.57
1676.57,-0.56
1685.81,-0.84
1695.06,-0.48
1704.30,-0.12
1713.54,0.91
1722.78,1.40
1732.02,1.18
1741.26,0.90
1750.50,1.02
1759.74,0.76
1768.98,-0.65
1778.22,-2.19
1787.46,-2.56
1796.70,-1.96
1805.94,-0.93
1815.19,0.24
1824.43,0.80
1833.67,0.24
1842.91,-0.64
1852.15,-0.92
1861.39,-0.73
1870.63,-0.28
1879.87,0.48
1889.11,0.83
1898.35,1.18
1907.59,1.37
1916.83,1.21
1926.07,1.25
1935.31,1.49
1944.56,1.30
1953.80,0.68
1963.04,0.29
1972.28,0.29
1981.52,0.48
1990.76,0.79
2000.00,0.93
2001.00,0.49
2018.22,-0.17
2035.45,-0.24
2052.67,0.50
2069.90,1.56
2087.12,2.21
2104.34,2.13
2121.57,2.10
2138.79,2.07
2156.02,2.70
2173.24,3.27
2190.47,2.64
2207.69,1.14
2224.91,0.07
2242.14,-0.16
2259.36,-0.40
2276.59,-0.75
2293.81,-0.51
2311.03,0.19
2328.26,1.08
2345.48,2.12
2362.71,2.56
2379.93,2.04
2397.16,1.47
2414.38,1.24
2431.60,0.99
2448.83,0.98
2466.05,1.21
2483.28,1.44
2500.50,1.42
2517.72,0.17
2534.95,-1.27
2552.17,-1.15
2569.40,0.69
2586.62,2.85
2603.84,3.97
2621.07,3.58
2638.29,2.29
2655.52,1.56
2672.74,2.01
2689.97,2.69
2707.19,2.60
2724.41,1.94
2741.64,1.39
2758.86,1.03
2776.09,0.75
2793.31,0.85
2810.53,1.13
2827.76,1.40
2844.98,1.51
2862.21,0.52
2879.43,-0.90
2896.66,-2.06
2913.88,-3.17
2931.10,-3.88
2948.33,-2.94
2965.55,-0.68
2982.78,0.74
3000.00,0.55
3001.00,0.49
3025.99,1.83
3050.98,3.90
3075.98,5.61
3100.97,6.21
3125.96,5.35
3150.95,3.62
3175.94,2.36
3200.93,2.32
3225.93,2.27
3250.92,2.75
3275.91,2.70
3300.90,1.53
3325.89,-0.22
3350.88,-1.45
3375.87,-1.38
3400.87,-0.04
3425.86,1.49
3450.85,1.75
3475.84,0.89
3500.83,0.65
3525.82,1.93
3550.82,3.59
3575.81,4.18
3600.80,3.80
3625.79,3.50
3650.78,3.52
3675.77,3.12
3700.77,2.65
3725.76,2.17
3750.75,1.28
3775.74,0.59
3800.73,-0.04
3825.73,-0.18
3850.72,0.39
3875.71,1.08
3900.70,1.06
3925.69,0.20
3950.68,-0.77
3975.68,-1.01
4000.67,-0.37
4025.66,0.71
4050.65,1.77
4075.64,2.41
4100.63,2.39
4125.62,2.18
4150.62,2.32
4175.61,2.38
4200.60,2.15
4225.59,1.91
4250.58,1.46
4275.58,1.50
4300.57,1.55
4325.56,1.03
4350.55,-0.02
4375.54,-1.43
4400.53,-2.76
4425.52,-3.04
4450.52,-1.86
4475.51,-0.15
4500.50,0.91
4525.49,1.19
4550.48,1.00
4575.48,0.51
4600.47,0.23
4625.46,0.68
4650.45,1.41
4675.44,1.52
4700.43,1.05
4725.42,0.87
4750.42,0.69
4775.41,0.54
4800.40,0.57
4825.39,1.02
4850.38,1.35
4875.37,0.77
4900.37,0.06
4925.36,0.64
4950.35,2.50
4975.34,4.29
5000.33,5.23
5025.33,6.31
5050.32,8.51
5075.31,10.80
5100.30,11.63
5125.29,10.98
5150.28,10.03
5175.27,9.50
5200.27,9.21
5225.26,9.05
5250.25,8.88
5275.24,8.47
5300.23,7.85
5325.23,6.75
5350.22,5.66
5375.21,5.83
5400.20,7.36
5425.19,8.54
5450.18,8.57
5475.17,8.65
5500.17,9.77
5525.16,11.24
5550.15,11.75
5575.14,11.58
5600.13,12.22
5625.12,13.62
5650.12,14.76
5675.11,17.23
5700.10,25.58
5725.09,35.30
5750.08,45.02
5775.08,80.58
5800.07,137.53
5825.06,220.22
5850.05,329.39
5875.04,459.99
5900.03,600.07
5925.02,731.25
5950.02,832.24
5975.01,884.61
6000.00,879.39
6024.79,819.81
6049.64,718.07
6074.48,591.32
6099.32,458.55
6124.16,335.41
6149.01,231.13
6173.85,150.42
6198.69,94.33
6223.53,76.90
6248.38,59.48
6273.22,39.96
6298.06,29.70
6322.90,23.62
6347.75,18.74
6372.59,14.50
6397.43,11.69
6422.27,10.76
6447.12,11.25
6471.96,12.34
6496.80,13.31
6521.65,13.57
6546.49,13.07
6571.33,12.07
6596.17,10.77
6621.02,9.58
6645.86,9.04
6670.70,9.09
6695.54,9.09
6720.39,8.84
6745.23,8.58
6770.07,7.33
6794.91,5.47
6819.76,4.06
6844.60,4.23
6869.44,5.54
6894.28,6.43
6919.13,6.26
6943.97,5.54
6968.81,4.54
6993.65,3.19
7018.50,1.67
7043.34,0.14
7068.18,-0.89
7093.02,-0.41
7117.87,1.35
7142.71,2.35
7167.55,1.38
7192.39,-0.29
7217.24,-0.75
7242.08,-1.20
7266.92,-1.58
7291.77,-1.96
7316.61,-2.10
7341.45,-2.07
7366.29,-2.23
7391.14,-2.25
7415.98,-1.79
7440.82,-1.12
7465.66,-0.45
7490.51,-0.13
7515.35,-0.40
7540.19,-0.73
7565.03,-0.63
7589.88,-0.18
7614.72,0.52
7639.56,1.08
7664.40,1.08
7689.25,0.81
7714.09,0.62
7738.93,0.47
7763.77,0.32
7788.62,0.07
7813.46,0.44
7838.30,1.19
7863.14,1.38
7887.99,0.95
7912.83,0.61
7937.67,0.29
7962.51,-0.29
7987.36,-0.71
8012.20,-0.92
8037.04,-1.51
8061.89,-2.31
8086.73,-2.47
8111.57,-1.80
8136.41,-0.74
8161.26,0.01
8186.10,-0.29
8210.94,-1.53
8235.78,-2.15
8260.63,-2.78
8285.47,-3.37
8310.31,-3.05
8335.15,-1.89
8360.00,-0.68
8384.84,-0.26
8409.68,-0.95
8434.52,-2.46
8459.37,-3.92
8484.21,-4.58
8509.05,-4.56
8533.89,-4.30
8558.74,-4.15
8583.58,-4.43
8608.42,-5.07
8633.26,-5.59
8658.11,-5.59
8682.95,-5.00
8707.79,-3.84
8732.63,-2.99
8757.48,-2.13
8782.32,-0.15
8807.16,1.24
8832.00,1.29
8856.85,0.26
8881.69,-0.97
8906.53,-1.95
8931.37,-2.80
8956.22,-3.38
8981.06,-3.35
9005.90,-2.77
9030.75,-2.13
9055.59,-1.79
9080.43,-1.70
9105.27,-1.70
9130.12,-1.73
9154.96,-1.53
9179.80,-0.97
9204.64,-0.60
9229.49,-0.77
9254.33,-0.95
9279.17,-1.95
9304.01,-3.23
9328.86,-4.15
9353.70,-4.16
9378.54,-3.64
9403.38,-3.58
9428.23,-4.08
9453.07,-4.45
9477.91,-4.28
9502.75,-3.78
9527.60,-3.23
9552.44,-2.55
9577.28,-1.77
9602.12,-1.58
9626.97,-2.05
9651.81,-2.07
9676.65,-1.18
9701.50,-0.28
9726.34,-0.13
9751.18,0.02
9776.02,0.06
9800.87,0.11
9825.71,-0.19
9850.55,-0.87
9875.39,-1.21
9900.24,-0.78
9925.08,-0.22
9949.92,-0.30
9974.76,-0.50
9999.61,0.04
10024.45,1.11
10049.29,2.21
10074.13,3.41
10098.98,3.96
10123.82,2.52
10148.66,-0.40
10173.50,-2.53
10198.35,-2.66
10223.19,-2.21
10248.03,-1.75
10272.87,-1.26
10297.72,-1.43
10322.56,-1.40
10347.40,-0.56
10372.25,0.28
10397.09,-0.13
10421.93,-1.56
10446.77,-2.77
10471.62,-3.37
10496.46,-3.73
10521.30,-3.59
10546.14,-2.59
10570.99,-1.51
10595.83,-1.31
10620.67,-1.78
10645.51,-2.38
10670.36,-2.97
10695.20,-3.32
10720.04,-3.19
10744.88,-3.06
10769.73,-2.36
10794.57,-2.00
10819.41,-2.48
10844.25,-3.13
10869.10,-3.11
10893.94,-2.96
10918.78,-3.48
10943.62,-4.28
10968.47,-4.17
10993.31,-2.87
11018.15,-1.87
11043.00,-2.35
11067.84,-3.33
11092.68,-3.62
11117.52,-3.27
11142.37,-2.76
11167.21,-2.50
11192.05,-2.90
11216.89,-3.62
11241.74,-3.70
11266.58,-3.77
11291.42,-3.30
11316.26,-3.01
11341.11,-3.18
11365.95,-3.38
11390.79,-3.45
11415.63,-3.81
11440.48,-4.48
11465.32,-4.77
11490.16,-4.32
11515.00,-3.68
11539.85,-3.60
11564.69,-4.03
11589.53,-4.26
11614.37,-4.08
11639.22,-3.77
11664.06,-3.42
11688.90,-2.61
11713.74,-1.26
11738.59,-0.83
11763.43,-0.41
11788.27,-0.84
11813.12,-1.78
11837.96,-2.14
11862.80,-1.55
11887.64,-0.53
11912.49,-0.18
11937.33,-0.77
11962.17,-1.51
11987.01,-1.88
12011.86,-1.86
12036.70,-1.00
12061.54,0.33
12086.38,0.62
12111.23,-0.30
12136.07,-1.11
12160.91,-1.43
12185.75,-1.57
12210.60,-1.18
12235.44,-0.72
12260.28,-0.25
12285.12,0.23
12309.97,-0.38
12334.81,-1.53
12359.65,-2.16
12384.49,-1.74
12409.34,-0.87
12434.18,-0.46
12459.02,-0.59
12483.86,-0.77
12508.71,-0.89
12533.55,-1.11
12558.39,-1.57
12583.24,-2.35
12608.08,-2.85
12632.92,-2.36
12657.76,-1.48
12682.61,-1.17
12707.45,-1.38
12732.29,-1.69
12757.13,-2.00
12781.98,-2.93
12806.82,-3.24
12831.66,-2.34
12856.50,-0.92
12881.35,-0.08
12906.19,-0.12
12931.03,-0.77
12955.87,-1.57
12980.72,-1.80
13005.56,-0.91
13030.40,0.54
13055.24,1.21
13080.09,0.38
13104.93,-1.44
13129.77,-2.95
13154.61,-3.07
13179.46,-1.66
13204.30,0.18
13229.14,0.51
13253.98,0.83
13278.83,-0.10
13303.67,-1.08
13328.51,-1.06
13353.35,-1.13
13378.20,-2.07
13403.04,-3.05
13427.88,-3.29
13452.73,-3.04
13477.57,-2.79
13502.41,-2.64
13527.25,-2.84
13552.10,-3.83
13576.94,-5.08
13601.78,-5.46
13626.62,-4.96
13651.47,-4.76
13676.31,-5.17
13701.15,-5.01
13725.99,-4.46
13750.84,-3.91
13775.68,-3.36
13800.52,-4.21
13825.36,-5.07
13850.21,-4.77
13875.05,-4.04
13899.89,-3.65
13924.73,-3.03
13949.58,-2.11
13974.42,-2.13
13999.26,-3.00
14024.10,-3.16
14048.95,-2.49
14073.79,-2.23
14098.63,-2.28
14123.47,-1.51
14148.32,-0.23
14173.16,0.11
14198.00,-0.69
14222.85,-1.02
14247.69,-1.35
14272.53,-1.02
14297.37,-0.51
14322.22,-1.20
14347.06,-2.81
14371.90,-3.69
14396.74,-3.30
14421.59,-2.33
14446.43,-1.30
14471.27,-0.65
14496.11,-0.93
14520.96,-2.03
14545.80,-2.75
14570.64,-2.09
14595.48,-0.67
14620.33,-0.19
14645.17,-1.47
14670.01,-3.40
14694.85,-4.21
14719.70,-3.43
14744.54,-2.62
14769.38,-1.81
14794.22,-0.28
14819.07,0.47
14843.91,0.15
14868.75,-0.72
14893.59,-1.27
14918.44,-1.21
14943.28,-0.76
14968.12,-0.11
14992.97,0.53
15017.81,0.84
15042.65,0.50
15067.49,-0.29
15092.34,-0.76
15117.18,-0.99
15142.02,-1.60
15166.86,-2.18
15191.71,-2.22
15216.55,-2.31
15241.39,-2.67
15266.23,-3.03
15291.08,-3.90
15315.92,-4.07
15340.76,-3.27
15365.60,-2.07
15390.45,-1.45
15415.29,-1.61
15440.13,-1.59
15464.97,-0.80
15489.82,-0.11
15514.66,-0.68
15539.50,-1.93
15564.34,-2.42
15589.19,-2.22
15614.03,-2.39
15638.87,-2.95
15663.71,-3.30
15688.56,-3.10
15713.40,-2.18
15738.24,-1.59
15763.08,-1.01
15787.93,-0.67
15812.77,-1.43
15837.61,-2.50
15862.46,-3.28
15887.30,-3.94
15912.14,-4.40
15936.98,-3.99
15961.83,-2.73
15986.67,-1.84
16011.51,-2.04
16036.35,-2.26
16061.20,-1.56
16086.04,-0.94
16110.88,-1.52
16135.72,-2.54
16160.57,-2.62
16185.41,-1.89
16210.25,-1.51
16235.09,-1.68
16259.94,-1.84
16284.78,-2.42
16309.62,-3.22
16334.46,-4.32
16359.31,-5.13
16384.15,-5.07
16408.99,-4.59
16433.84,-4.56
16458.68,-4.56
16483.52,-3.50
16508.36,-1.66
16533.21,-0.30
16558.05,-0.24
16582.89,-1.43
16607.73,-2.82
16632.58,-3.42
16657.42,-3.73
16682.26,-4.56
16707.10,-5.38
16731.95,-5.49
16756.79,-5.60
16781.63,-5.57
16806.47,-5.59
16831.32,-5.73
16856.16,-6.18
16881.00,-6.78
16905.84,-6.86
16930.69,-5.97
16955.53,-4.47
16980.37,-3.10
17005.21,-2.09
17030.06,-1.62
17054.90,-2.34
17079.74,-3.89
17104.58,-4.39
17129.43,-2.96
17154.27,-1.11
17179.11,-0.72
17203.96,-1.70
17228.80,-2.13
17253.64,-2.56
17278.48,-2.72
17303.33,-2.81
17328.17,-2.88
17353.01,-2.06
17377.85,-0.30
17402.70,1.42
17427.54,1.98
17452.38,0.97
17477.22,-0.75
17502.07,-1.86
17526.91,-2.22
17551.75,-2.67
17576.59,-3.14
17601.44,-2.47
17626.28,-0.66
17651.12,0.41
17675.96,-0.40
17700.81,-1.97
17725.65,-2.47
17750.49,-2.97
17775.33,-3.50
17800.18,-3.88
17825.02,-4.07
17849.86,-4.12
17874.71,-3.82
17899.55,-3.06
17924.39,-2.42
17949.23,-2.25
17974.07,-2.21
17998.92,-2.39
18023.76,-3.05
18048.60,-3.55
18073.45,-3.48
18098.29,-3.36
18123.13,-3.69
18147.97,-4.33
18172.82,-4.72
18197.66,-4.54
18222.50,-4.08
18247.34,-3.76
18272.19,-3.45
18297.03,-2.23
18321.87,-1.01
18346.71,-0.84
18371.56,-1.28
18396.40,-1.52
18421.24,-1.86
18446.08,-2.30
18470.93,-2.02
18495.77,-1.04
18520.61,-0.25
18545.46,0.00
