Size (bp),Intensity
0.58,2121.74
1.00,1827.08
2.00,1248.77
2.42,696.01
2.84,341.85
3.26,175.73
3.68,114.90
4.10,96.66
4.52,94.73
4.94,92.81
5.36,93.00
5.79,92.69
6.21,89.22
6.63,81.93
7.05,72.57
7.47,62.90
7.89,52.73
8.31,42.06
8.73,32.78
9.15,26.75
9.57,23.63
9.99,21.66
10.41,20.05
10.83,19.13
11.25,18.49
11.67,17.81
12.09,17.12
12.52,15.17
12.94,13.42
13.36,11.86
13.78,10.47
14.20,9.60
14.62,9.07
15.04,8.96
15.46,9.91
15.88,11.18
16.30,10.84
16.72,8.79
17.14,7.03
17.56,6.81
17.98,7.53
18.40,7.74
18.82,7.96
19.24,7.68
19.67,7.24
20.09,6.99
20.51,6.76
20.93,6.63
21.35,6.73
21.77,6.67
22.19,6.22
22.61,5.50
23.03,4.63
23.45,3.80
23.87,3.35
24.29,3.44
24.71,3.90
25.13,4.29
25.55,4.39
25.97,4.48
26.39,4.61
26.82,4.58
27.24,4.36
27.66,4.30
28.08,4.33
28.50,4.15
28.92,4.19
29.34,4.80
29.76,5.32
30.18,5.43
30.60,5.76
31.02,6.69
31.44,7.58
31.86,7.72
32.28,7.58
32.70,7.77
33.12,7.96
33.55,8.55
33.97,9.09
34.39,10.06
34.81,11.03
35.23,10.76
35.65,9.62
36.07,9.17
36.49,9.77
36.91,10.36
37.33,10.21
37.75,9.90
38.17,10.46
38.59,11.88
39.01,13.34
39.43,13.89
39.85,14.45
40.27,15.58
40.70,16.69
41.12,16.78
41.54,15.63
41.96,14.60
42.38,14.35
42.80,13.85
43.22,12.77
43.64,12.53
44.06,13.89
44.48,15.39
44.90,15.27
45.32,13.69
45.74,11.88
46.16,10.35
46.58,9.72
47.00,9.10
47.42,8.40
47.85,8.37
48.27,8.46
48.69,8.09
49.11,7.39
49.53,6.95
49.95,6.94
50.37,6.97
50.79,6.91
51.21,6.86
51.63,6.52
52.05,5.43
52.47,3.93
52.89,3.03
53.31,3.12
53.73,3.22
54.15,4.05
54.58,4.75
55.00,5.02
55.42,5.18
55.84,5.44
56.26,5.30
56.68,4.46
57.10,3.84
57.52,4.40
57.94,5.33
58.36,4.89
58.78,3.34
59.20,2.47
59.62,2.43
60.04,2.16
60.46,1.99
60.88,1.82
61.30,2.13
61.73,3.23
62.15,4.78
62.57,6.11
62.99,6.44
63.41,5.48
63.83,4.08
64.25,3.66
64.67,4.32
65.09,4.76
65.51,4.57
65.93,4.37
66.35,4.25
66.77,3.89
67.19,3.54
67.61,3.19
68.03,2.25
68.45,1.41
68.88,0.82
69.30,0.19
69.72,-0.46
70.14,-0.41
70.56,0.76
70.98,2.14
71.40,2.31
71.82,0.89
72.24,-1.12
72.66,-1.94
73.08,-0.39
73.50,2.61
73.92,4.68
74.34,4.58
74.76,4.48
75.18,3.17
75.61,2.70
76.03,3.75
76.45,5.47
76.87,6.34
77.29,5.94
77.71,5.50
78.13,6.00
78.55,7.10
78.97,7.98
79.39,7.88
79.81,6.78
80.23,5.45
80.65,4.30
81.07,3.16
81.49,2.81
81.91,2.45
82.33,2.80
82.76,3.71
83.18,3.88
83.60,2.84
84.02,1.62
84.44,1.42
84.86,2.03
85.28,2.58
85.70,2.89
86.12,3.13
86.54,3.22
86.96,3.38
87.38,3.77
87.80,3.96
88.22,3.87
88.64,3.77
89.06,3.84
89.48,4.32
89.91,4.48
90.33,4.19
90.75,4.30
91.17,4.92
91.59,5.22
92.01,4.87
92.43,3.88
92.85,2.15
93.27,0.37
93.69,-0.35
94.11,-0.14
94.53,0.30
94.95,1.08
95.37,1.63
95.79,2.19
96.21,2.82
96.64,2.57
97.06,2.01
97.48,1.76
97.90,1.78
98.32,1.57
98.74,1.22
99.16,1.41
99.58,2.44
100.00,3.92
101.00,5.07
101.52,4.69
102.04,2.30
102.56,-0.48
103.08,-0.91
103.61,-1.35
104.13,-0.57
104.65,0.01
105.17,0.50
105.69,1.88
106.21,3.14
106.73,3.07
107.25,2.22
107.77,1.48
108.29,0.93
108.82,0.79
109.34,1.29
109.86,1.94
110.38,2.01
110.90,1.59
111.42,1.00
111.94,0.52
112.46,0.04
112.98,-1.17
113.51,-1.57
114.03,-0.82
114.55,0.31
115.07,1.28
115.59,1.90
116.11,1.95
116.63,1.59
117.15,1.14
117.67,0.68
118.19,0.49
118.72,0.83
119.24,0.99
119.76,0.06
120.28,-0.54
120.80,-1.14
121.32,-0.94
121.84,0.39
122.36,1.39
122.88,2.05
123.41,2.82
123.93,2.94
124.45,1.83
124.97,0.21
125.49,-0.80
126.01,-0.82
126.53,-0.71
127.05,-1.41
127.57,-2.05
128.09,-1.25
128.62,0.38
129.14,0.84
129.66,1.30
130.18,1.26
130.70,0.82
131.22,0.28
131.74,-0.24
132.26,-0.52
132.78,-0.56
133.31,-0.58
133.83,-0.78
134.35,-1.00
134.87,-0.60
135.39,0.58
135.91,1.93
136.43,2.63
136.95,2.46
137.47,2.22
137.99,1.98
138.52,1.94
139.04,2.55
139.56,3.35
140.08,3.33
140.60,2.02
141.12,0.29
141.64,-0.84
142.16,-1.33
142.68,-1.52
143.21,-1.49
143.73,-1.42
144.25,-1.36
144.77,-1.05
145.29,-0.67
145.81,-0.71
146.33,-0.86
146.85,-1.01
147.37,-0.79
147.89,0.27
148.42,1.40
148.94,1.57
149.46,0.98
149.98,0.58
150.50,0.74
151.02,1.30
151.54,1.97
152.06,2.24
152.58,1.88
153.11,1.31
153.63,0.95
154.15,0.89
154.67,0.94
155.19,0.90
155.71,0.86
156.23,0.49
156.75,-0.04
157.27,0.00
157.79,0.85
158.32,1.32
158.84,0.77
159.36,0.29
159.88,0.45
160.40,0.47
160.92,0.28
161.44,0.56
161.96,0.91
162.48,0.44
163.01,-0.45
163.53,-0.49
164.05,-0.54
164.57,0.52
165.09,1.98
165.61,2.92
166.13,2.86
166.65,1.89
167.17,0.64
167.69,-0.28
168.22,-0.53
168.74,0.19
169.26,1.57
169.78,2.27
170.30,1.54
170.82,0.54
171.34,0.89
171.86,2.36
172.38,2.87
172.91,3.38
173.43,3.35
173.95,2.91
174.47,2.38
174.99,2.02
175.51,2.57
176.03,3.56
176.55,3.56
177.07,3.01
177.59,3.48
178.12,4.56
178.64,4.86
179.16,4.52
179.68,4.38
180.20,4.43
180.72,4.29
181.24,4.15
181.76,3.68
182.28,3.90
182.81,4.73
183.33,4.66
183.85,3.22
184.37,2.16
184.89,2.82
185.41,4.36
185.93,5.15
186.45,4.59
186.97,3.70
187.49,3.68
188.02,4.73
188.54,6.62
189.06,8.59
189.58,8.85
190.10,9.11
190.62,7.96
191.14,7.01
191.66,7.68
192.18,9.48
192.71,11.28
193.23,12.45
193.75,13.12
194.27,14.03
194.79,15.52
195.31,17.02
195.83,18.00
196.35,18.66
196.87,19.51
197.39,20.73
197.92,21.29
198.44,21.85
198.96,22.25
199.48,21.72
200.00,20.42
201.00,18.81
201.59,17.53
202.17,16.72
202.76,16.10
203.34,15.91
203.93,16.71
204.51,17.87
205.10,18.04
205.69,17.58
206.27,18.25
206.86,20.62
207.44,23.39
208.03,24.06
208.62,24.74
209.20,24.07
209.79,22.71
210.37,22.12
210.96,21.88
211.54,20.76
212.13,18.86
212.72,17.42
213.30,16.95
213.89,16.83
214.47,16.42
215.06,15.77
215.64,15.29
216.23,15.18
216.82,15.24
217.40,15.21
217.99,15.01
218.57,14.81
219.16,13.89
219.75,13.14
220.33,13.39
220.92,14.00
221.50,13.57
222.09,11.93
222.67,10.32
223.26,9.90
223.85,10.43
224.43,10.59
225.02,9.90
225.60,9.45
226.19,9.83
226.78,10.10
227.36,9.89
227.95,9.69
228.53,9.33
229.12,9.69
229.70,10.85
230.29,12.42
230.88,13.76
231.46,14.79
232.05,15.34
232.63,14.41
233.22,12.10
233.80,10.47
234.39,10.80
234.98,12.04
235.56,12.67
236.15,12.62
236.73,13.03
237.32,13.69
237.91,14.36
238.49,15.66
239.08,16.17
239.66,16.63
240.25,18.05
240.83,20.32
241.42,22.34
242.01,23.10
242.59,22.48
243.18,21.42
243.76,21.31
244.35,22.53
244.93,24.33
245.52,26.36
246.11,29.08
246.69,31.00
247.28,32.91
247.86,37.57
248.45,41.79
249.04,44.37
249.62,45.37
250.21,45.20
250.79,43.64
251.38,41.08
251.96,38.94
252.55,38.07
253.14,38.63
253.72,41.04
254.31,45.59
254.89,52.45
255.48,61.76
256.07,72.89
256.65,78.62
257.24,84.36
257.82,94.53
258.41,101.99
258.99,106.11
259.58,107.77
260.17,108.55
260.75,109.18
261.34,109.82
261.92,111.87
262.51,117.33
263.09,126.37
263.68,138.13
264.27,153.95
264.85,177.22
265.44,209.77
266.02,230.33
266.61,250.90
267.20,298.01
267.78,346.21
268.37,390.00
268.95,428.12
269.54,465.39
270.12,507.11
270.71,552.50
271.30,595.78
271.88,633.50
272.47,668.74
273.05,710.74
273.64,775.10
274.22,880.43
274.81,1036.89
275.40,1236.53
275.98,1346.10
276.57,1455.67
277.15,1666.75
277.74,1852.72
278.33,2014.80
278.91,2167.19
279.50,2327.40
280.08,2515.27
280.67,2760.20
281.25,3109.34
281.84,3627.94
282.43,4373.73
283.01,5361.99
283.60,6610.47
284.18,8307.68
284.77,10889.04
285.36,14676.96
285.94,16946.35
286.53,19215.74
287.11,23047.92
287.70,24423.76
288.28,22504.73
288.87,18032.44
289.46,12781.95
290.04,8307.44
290.63,5201.36
291.21,3291.58
291.80,2169.29
292.38,1502.24
292.97,1098.62
293.56,860.34
294.14,727.58
294.73,656.72
295.31,637.59
295.90,618.45
296.49,595.14
297.07,576.63
297.66,557.33
298.24,534.23
298.83,505.10
299.41,467.96
300.00,423.04
301.00,374.62
301.70,328.56
302.39,288.58
303.09,255.97
303.79,231.00
304.49,213.07
305.18,200.69
305.88,191.87
306.58,188.24
307.27,184.62
307.97,178.31
308.67,172.64
309.37,165.58
310.06,155.59
310.76,144.30
311.46,134.13
312.15,126.07
312.85,120.46
313.55,116.99
314.25,113.84
314.94,108.70
315.64,100.54
316.34,89.89
317.04,78.03
317.73,72.32
318.43,66.61
319.13,57.19
319.82,50.40
320.52,45.94
321.22,43.48
321.92,43.03
322.61,45.29
323.31,50.95
324.01,58.61
324.70,64.89
325.40,67.41
326.10,65.75
326.80,60.43
327.49,53.05
328.19,45.77
328.89,39.38
329.58,36.59
330.28,33.79
330.98,29.42
331.68,26.58
332.37,24.50
333.07,21.96
333.77,18.46
334.46,14.91
335.16,12.80
335.86,12.37
336.56,12.31
337.25,11.31
337.95,9.09
338.65,6.45
339.35,4.72
340.04,4.61
340.74,5.13
341.44,5.64
342.13,7.02
342.83,8.21
343.53,8.51
344.23,7.53
344.92,5.90
345.62,4.70
346.32,4.34
347.01,4.17
347.71,3.58
348.41,3.22
349.11,3.68
349.80,4.23
350.50,4.48
351.20,5.17
351.89,6.15
352.59,6.10
353.29,6.04
353.99,4.90
354.68,4.30
355.38,4.22
356.08,3.61
356.77,2.77
357.47,2.26
358.17,1.77
358.87,1.53
359.56,2.07
360.26,2.79
360.96,2.64
361.65,1.78
362.35,1.20
363.05,1.53
363.75,2.46
364.44,2.74
365.14,3.02
365.84,2.85
366.54,2.43
367.23,2.01
367.93,1.36
368.63,0.62
369.32,0.31
370.02,0.38
370.72,0.47
371.42,0.61
372.11,0.77
372.81,0.70
373.51,0.56
374.20,0.68
374.90,0.73
375.60,0.61
376.30,0.50
376.99,0.45
377.69,0.28
378.39,-0.67
379.08,-1.64
379.78,-1.81
380.48,-1.56
381.18,-0.68
381.87,1.40
382.57,3.56
383.27,4.11
383.96,2.80
384.66,0.45
385.36,-1.62
386.06,-2.32
386.75,-1.53
387.45,-0.69
388.15,0.15
388.85,1.54
389.54,1.60
390.24,0.79
390.94,0.56
391.63,1.30
392.33,1.72
393.03,0.80
393.73,-0.56
394.42,-1.18
395.12,-1.31
395.82,-1.35
396.51,-1.24
397.21,-1.08
397.91,-1.21
398.61,-1.46
399.30,-1.72
400.00,-2.08
401.00,-1.40
401.72,0.05
402.45,0.88
403.17,0.66
403.89,0.45
404.61,0.57
405.34,0.15
406.06,-0.86
406.78,-1.24
407.50,-0.37
408.23,0.77
408.95,0.75
409.67,-0.76
410.39,-2.54
411.12,-2.72
411.84,-2.90
412.56,-1.38
413.28,0.59
414.01,1.43
414.73,1.34
415.45,1.06
416.18,0.36
416.90,-0.76
417.62,-1.40
418.34,-1.18
419.07,-0.66
419.79,-0.32
420.51,-0.24
421.23,-0.33
421.96,-0.30
422.68,-0.31
423.40,-0.31
424.12,-1.03
424.85,-2.17
425.57,-2.70
426.29,-2.37
427.01,-1.51
427.74,-0.33
428.46,0.75
429.18,1.48
429.91,2.26
430.63,3.06
431.35,2.99
432.07,2.02
432.80,1.46
433.52,1.96
434.24,2.96
434.96,3.34
435.69,3.73
436.41,3.78
437.13,3.28
437.85,2.94
438.58,2.78
439.30,2.36
440.02,1.94
440.74,2.27
441.47,3.63
442.19,5.35
442.91,6.07
443.64,5.35
444.36,4.62
445.08,4.95
445.80,5.36
446.53,5.09
447.25,4.81
447.97,3.77
448.69,3.04
449.42,3.01
450.14,3.65
450.86,4.51
451.58,5.07
452.31,5.07
453.03,4.56
453.75,3.87
454.47,3.42
455.20,3.42
455.92,3.77
456.64,3.88
457.36,3.24
458.09,2.29
458.81,1.98
459.53,1.67
460.26,0.95
460.98,-0.28
461.70,-1.14
462.42,-0.66
463.15,0.72
463.87,1.83
464.59,2.27
465.31,2.29
466.04,1.92
466.76,1.17
467.48,0.36
468.20,-0.35
468.93,-0.73
469.65,-0.37
470.37,0.75
471.09,1.40
471.82,2.05
472.54,2.76
473.26,2.55
473.99,1.96
474.71,1.46
475.43,0.93
476.15,0.56
476.88,1.00
477.60,2.31
478.32,3.60
479.04,3.61
479.77,2.24
480.49,0.98
481.21,0.95
481.93,1.64
482.66,1.84
483.38,2.04
484.10,1.62
484.82,0.72
485.55,0.42
486.27,1.10
486.99,1.89
487.72,2.19
488.44,2.27
489.16,2.41
489.88,2.21
490.61,1.37
491.33,0.70
492.05,1.26
492.77,2.67
493.50,3.31
494.22,2.41
494.94,1.68
495.66,0.96
496.39,0.27
497.11,0.46
497.83,0.84
498.55,0.81
499.28,0.15
500.00,-0.66
501.00,-0.67
502.01,0.28
503.02,1.24
504.03,1.55
505.04,1.71
506.05,2.34
507.06,3.34
508.07,4.17
509.08,4.29
510.09,4.40
511.10,3.87
512.11,2.59
513.12,1.13
514.13,0.55
515.14,1.26
516.15,2.43
517.16,3.06
518.17,2.53
519.18,0.84
520.19,-0.92
521.20,-1.33
522.21,-0.39
523.22,0.42
524.23,0.41
525.24,0.36
526.26,0.67
527.27,0.98
528.28,1.95
529.29,2.46
530.30,1.95
531.31,0.78
532.32,-0.06
533.33,-0.27
534.34,-0.36
535.35,-0.64
536.36,-0.85
537.37,-0.71
538.38,-0.01
539.39,1.06
540.40,1.76
541.41,1.73
542.42,1.51
543.43,1.28
544.44,0.87
545.45,0.83
546.46,1.21
547.47,1.80
548.48,2.29
549.49,2.38
550.50,1.93
551.51,1.06
552.52,0.31
553.53,-0.00
554.54,-0.38
555.55,-1.08
556.56,-1.31
557.57,-0.51
558.58,0.49
559.59,0.49
560.60,0.49
561.61,-0.41
562.62,-0.79
563.63,0.03
564.64,0.50
565.65,-0.69
566.66,-2.08
567.67,-1.64
568.68,0.10
569.69,1.18
570.70,1.01
571.71,0.48
572.72,0.26
573.73,0.26
574.74,0.47
575.76,0.95
576.77,1.11
577.78,1.27
578.79,0.97
579.80,0.33
580.81,-0.01
581.82,0.44
582.83,1.52
583.84,2.51
584.85,3.39
585.86,4.61
586.87,5.53
587.88,5.25
588.89,4.35
589.90,4.07
590.91,4.65
591.92,5.19
592.93,4.93
593.94,4.67
594.95,2.89
595.96,0.98
596.97,0.33
597.98,0.81
598.99,1.14
600.00,0.88
601.00,0.63
602.18,0.58
603.36,0.54
604.54,0.77
605.71,1.64
606.89,2.78
608.07,3.48
609.25,3.34
610.43,2.74
611.61,2.72
612.79,2.71
613.96,3.57
615.14,4.16
616.32,3.73
617.50,3.20
618.68,3.57
619.86,4.29
621.04,4.28
622.21,3.66
623.39,3.03
624.57,2.05
625.75,0.44
626.93,-0.89
628.11,-1.26
629.29,-1.07
630.46,-0.89
631.64,-0.71
632.82,0.09
634.00,1.56
635.18,2.97
636.36,3.28
637.54,2.67
638.71,2.11
639.89,2.18
641.07,2.99
642.25,4.02
643.43,4.03
644.61,2.57
645.79,1.25
646.96,1.87
648.14,3.83
649.32,4.60
650.50,3.87
651.68,3.14
652.86,0.96
654.04,-0.27
655.21,-0.02
656.39,1.32
657.57,2.51
658.75,2.70
659.93,2.78
661.11,3.72
662.29,4.85
663.46,5.28
664.64,5.46
665.82,5.98
667.00,6.35
668.18,5.79
669.36,5.07
670.54,4.35
671.71,2.93
672.89,2.51
674.07,3.13
675.25,3.63
676.43,3.35
677.61,3.16
678.79,4.01
679.96,5.54
681.14,6.81
682.32,7.10
683.50,6.42
684.68,5.65
685.86,5.77
687.04,6.66
688.21,7.46
689.39,7.48
690.57,7.50
691.75,6.90
692.93,6.27
694.11,6.43
695.29,7.70
696.46,8.92
697.64,8.34
698.82,6.27
700.00,4.75
701.00,4.77
702.98,5.63
704.96,6.66
706.94,7.91
708.92,9.38
710.90,10.62
712.88,11.47
714.86,11.74
716.84,12.01
718.82,11.56
720.80,9.59
722.78,7.39
724.76,6.39
726.74,6.43
728.72,7.19
730.70,8.76
732.68,10.01
734.66,9.78
736.64,8.76
738.62,8.19
740.60,7.88
742.58,7.02
744.56,5.85
746.54,5.61
748.52,5.38
750.50,5.62
752.48,5.34
754.46,4.09
756.44,2.97
758.42,2.90
760.40,3.73
762.38,4.74
764.36,5.05
766.34,4.72
768.32,5.01
770.30,6.13
772.28,6.52
774.26,5.34
776.24,3.92
778.22,3.67
780.20,3.94
782.18,4.20
784.16,4.59
786.14,4.50
788.12,3.83
790.10,3.15
792.08,3.12
794.06,2.99
796.04,1.79
798.02,0.42
800.00,0.53
801.00,1.92
803.36,2.88
805.71,2.66
808.07,2.14
810.43,2.58
812.79,3.33
815.14,4.08
817.50,5.07
819.86,4.53
822.21,3.76
824.57,4.15
826.93,5.06
829.29,5.28
831.64,4.89
834.00,4.71
836.36,4.93
838.71,5.21
841.07,5.26
843.43,4.93
845.79,4.36
848.14,3.73
850.50,3.05
852.86,2.73
855.21,2.42
857.57,2.31
859.93,2.74
862.29,2.86
864.64,2.19
867.00,1.46
869.36,1.57
871.71,2.48
874.07,3.43
876.43,3.72
878.79,3.41
881.14,3.39
883.50,3.97
885.86,4.33
888.21,3.94
890.57,3.41
892.93,2.87
895.29,1.29
897.64,0.18
900.00,0.53
901.00,1.70
904.67,2.56
908.33,2.97
912.00,3.18
915.67,3.22
919.33,3.16
923.00,3.07
926.67,3.09
930.33,3.25
934.00,3.28
937.67,3.15
941.33,3.06
945.00,2.90
948.67,2.74
952.33,1.97
956.00,1.18
959.67,0.72
963.33,0.77
967.00,1.31
970.67,1.60
974.33,0.87
978.00,-0.30
981.67,-0.48
985.33,0.53
989.00,1.58
992.67,1.82
996.33,1.35
1000.00,0.35
1001.00,-0.90
1006.10,-1.15
1011.21,-1.40
1016.31,-0.60
1021.41,0.47
1026.51,0.84
1031.62,1.09
1036.72,1.78
1041.82,2.47
1046.92,2.72
1052.03,2.30
1057.13,1.21
1062.23,0.34
1067.33,0.26
1072.44,0.04
1077.54,-0.67
1082.64,-0.56
1087.74,0.10
1092.85,0.75
1097.95,1.75
1103.05,1.40
1108.15,0.27
1113.26,-0.48
1118.36,-0.21
1123.46,0.98
1128.56,2.14
1133.67,2.34
1138.77,2.00
1143.87,1.66
1148.97,0.96
1154.08,0.22
1159.18,0.26
1164.28,0.57
1169.38,0.56
1174.49,0.58
1179.59,0.61
1184.69,0.78
1189.79,0.80
1194.90,1.00
1200.00,1.39
1201.00,1.25
1210.06,0.61
1219.12,0.24
1228.18,0.45
1237.24,1.14
1246.30,2.09
1255.36,2.86
1264.42,3.14
1273.48,3.19
1282.55,3.49
1291.61,3.78
1300.67,4.07
1309.73,4.26
1318.79,3.32
1327.85,1.41
1336.91,-0.08
1345.97,0.12
1355.03,1.42
1364.09,2.11
1373.15,1.70
1382.21,1.10
1391.27,1.05
1400.33,1.43
1409.39,2.04
1418.45,3.16
1427.52,4.24
1436.58,4.12
1445.64,3.56
1454.70,3.00
1463.76,1.81
1472.82,0.80
1481.88,0.13
1490.94,0.07
1500.00,0.38
1501.00,0.83
1510.24,1.20
1519.48,0.87
1528.72,0.04
1537.96,-0.16
1547.20,0.56
1556.44,1.45
1565.69,1.86
1574.93,1.55
1584.17,1.23
1593.41,0.91
1602.65,0.76
1611.89,1.15
1621.13,1.43
1630.37,1.65
1639.61,2.36
1648.85,3.17
1658.09,3.20
1667.33,2.22
1676.57,0.57
1685.81,-0.96
1695.06,-1.42
1704.30,-0.88
1713.54,-0.29
1722.78,0.37
1732.02,1.72
1741.26,2.45
1750.50,3.19
1759.74,3.59
1768.98,3.02
1778.22,2.43
1787.46,2.11
1796.70,1.82
1805.94,1.68
1815.19,1.93
1824.43,2.10
1833.67,1.62
1842.91,0.75
1852.15,0.09
1861.39,-0.28
1870.63,-0.53
1879.87,-0.20
1889.11,0.57
1898.35,1.33
1907.59,3.27
1916.83,3.73
1926.07,2.48
1935.31,1.34
1944.56,1.50
1953.80,2.50
1963.04,3.08
1972.28,2.30
1981.52,0.96
1990.76,0.88
2000.00,2.24
2001.00,3.40
2018.22,3.39
2035.45,2.89
2052.67,3.00
2069.90,3.38
2087.12,3.77
2104.34,4.06
2121.57,3.02
2138.79,1.29
2156.02,0.57
2173.24,1.63
2190.47,3.20
2207.69,3.84
2224.91,3.95
2242.14,4.20
2259.36,4.30
2276.59,4.42
2293.81,5.02
2311.03,5.38
2328.26,4.94
2345.48,4.40
2362.71,4.43
2379.93,4.46
2397.16,5.12
2414.38,5.93
2431.60,6.36
2448.83,6.23
2466.05,5.97
2483.28,5.96
2500.50,6.33
2517.72,6.99
2534.95,7.18
2552.17,6.34
2569.40,5.59
2586.62,6.32
2603.84,7.70
2621.07,8.00
2638.29,7.66
2655.52,7.31
2672.74,6.81
2689.97,6.80
2707.19,6.72
2724.41,6.12
2741.64,5.35
2758.86,5.64
2776.09,7.14
2793.31,8.09
2810.53,7.26
2827.76,5.56
2844.98,4.28
2862.21,3.72
2879.43,3.68
2896.66,3.93
2913.88,4.38
2931.10,4.75
2948.33,5.12
2965.55,6.03
2982.78,6.89
3000.00,7.64
3001.00,7.72
3025.99,6.50
3050.98,4.97
3075.98,4.83
3100.97,6.01
3125.96,6.87
3150.95,6.63
3175.94,6.17
3200.93,6.34
3225.93,6.89
3250.92,7.17
3275.91,7.01
3300.90,6.85
3325.89,5.88
3350.88,4.72
3375.87,3.99
3400.87,3.98
3425.86,4.85
3450.85,6.50
3475.84,7.76
3500.83,7.28
3525.82,5.69
3550.82,5.24
3575.81,6.44
3600.80,7.55
3625.79,7.49
3650.78,6.95
3675.77,6.73
3700.77,6.75
3725.76,6.78
3750.75,6.83
3775.74,6.94
3800.73,6.88
3825.73,6.14
3850.72,5.02
3875.71,4.13
3900.70,3.52
3925.69,3.23
3950.68,3.28
3975.68,3.23
4000.67,3.04
4025.66,3.19
4050.65,3.58
4075.64,3.91
4100.63,4.08
4125.62,4.25
4150.62,4.54
4175.61,4.37
4200.60,3.73
4225.59,3.40
4250.58,4.17
4275.58,5.51
4300.57,6.22
4325.56,6.16
4350.55,5.95
4375.54,5.66
4400.53,5.43
4425.52,5.87
4450.52,6.79
4475.51,7.27
4500.50,6.70
4525.49,6.06
4550.48,5.42
4575.48,4.65
4600.47,4.69
4625.46,4.49
4650.45,3.88
4675.44,3.63
4700.43,3.66
4725.42,3.51
4750.42,3.49
4775.41,4.04
4800.40,4.89
4825.39,5.31
4850.38,4.73
4875.37,3.66
4900.37,3.21
4925.36,3.43
4950.35,3.58
4975.34,3.72
5000.33,4.07
5025.33,4.18
5050.32,3.35
5075.31,2.07
5100.30,1.84
5125.29,2.89
5150.28,4.22
5175.27,5.64
5200.27,7.21
5225.26,7.99
5250.25,7.59
5275.24,6.81
5300.23,6.29
5325.23,5.90
5350.22,5.65
5375.21,5.39
5400.20,5.05
5425.19,5.06
5450.18,4.67
5475.17,3.44
5500.17,2.40
5525.16,2.66
5550.15,4.04
5575.14,5.51
5600.13,6.73
5625.12,8.73
5650.12,13.64
5675.11,25.50
5700.10,52.89
5725.09,110.64
5750.08,218.01
5775.08,305.66
5800.07,393.32
5825.06,645.93
5850.05,966.51
5875.04,1322.59
5900.03,1665.01
5925.02,1939.34
5950.02,2096.69
5975.01,2106.63
6000.00,1968.83
6024.79,1714.10
6049.64,1393.52
6074.48,1061.79
6099.32,761.37
6124.16,515.11
6149.01,329.65
6173.85,265.70
6198.69,201.75
6223.53,121.31
6248.38,74.77
6273.22,49.74
6298.06,37.49
6322.90,32.35
6347.75,30.41
6372.59,29.24
6397.43,28.25
6422.27,27.86
6447.12,27.94
6471.96,27.80
6496.80,27.20
6521.65,26.55
6546.49,26.36
6571.33,26.54
6596.17,26.49
6621.02,26.45
6645.86,25.87
6670.70,24.75
6695.54,23.04
6720.39,21.47
6745.23,20.52
6770.07,19.42
6794.91,17.55
6819.76,15.46
6844.60,13.85
6869.44,12.71
6894.28,11.51
6919.13,9.95
6943.97,8.65
6968.81,8.19
6993.65,8.04
7018.50,7.89
7043.34,7.08
7068.18,6.08
7093.02,5.25
7117.87,4.52
7142.71,4.16
7167.55,4.79
7192.39,6.14
7217.24,6.64
7242.08,5.12
7266.92,2.45
7291.77,0.35
7316.61,-0.47
7341.45,-0.09
7366.29,0.97
7391.14,1.87
7415.98,1.97
7440.82,2.07
7465.66,1.78
7490.51,1.20
7515.35,0.37
7540.19,-0.27
7565.03,-0.19
7589.88,0.03
7614.72,-0.60
7639.56,-1.48
7664.40,-1.16
7689.25,-0.01
7714.09,0.48
7738.93,0.07
7763.77,-0.10
7788.62,0.37
7813.46,0.41
7838.30,-0.08
7863.14,-0.56
7887.99,-1.32
7912.83,-1.04
7937.67,-0.56
7962.51,-0.73
7987.36,-1.29
8012.20,-1.44
8037.04,-0.96
8061.89,-0.70
8086.73,-1.37
8111.57,-2.09
8136.41,-1.86
8161.26,-1.14
8186.10,-0.60
8210.94,-0.01
8235.78,0.47
8260.63,0.95
8285.47,1.79
8310.31,1.58
8335.15,0.17
8360.00,-1.17
8384.84,-1.44
8409.68,-1.00
8434.52,-0.96
8459.37,-1.99
8484.21,-3.38
8509.05,-3.74
8533.89,-2.63
8558.74,-0.81
8583.58,0.51
8608.42,0.50
8633.26,-0.64
8658.11,-1.15
8682.95,-1.65
8707.79,-1.57
8732.63,-0.81
8757.48,-0.40
8782.32,-0.54
8807.16,-0.49
8832.00,0.17
8856.85,0.91
8881.69,1.09
8906.53,0.86
8931.37,0.36
8956.22,-0.79
8981.06,-2.40
9005.90,-3.29
9030.75,-2.91
9055.59,-2.36
9080.43,-1.82
9105.27,-0.63
9130.12,0.05
9154.96,-0.19
9179.80,-0.65
9204.64,-0.39
9229.49,0.58
9254.33,1.60
9279.17,2.16
9304.01,2.03
9328.86,1.20
9353.70,0.17
9378.54,-0.53
9403.38,-1.20
9428.23,-2.17
9453.07,-2.72
9477.91,-2.56
9502.75,-2.40
9527.60,-1.82
9552.44,-1.46
9577.28,-1.47
9602.12,-1.93
9626.97,-2.69
9651.81,-3.42
9676.65,-3.27
9701.50,-1.78
9726.34,-0.15
9751.18,0.49
9776.02,0.66
9800.87,1.04
9825.71,1.38
9850.55,1.17
9875.39,0.66
9900.24,0.15
9925.08,-1.00
9949.92,-1.31
9974.76,-0.89
9999.61,-0.37
10024.45,0.21
10049.29,0.69
10074.13,0.46
10098.98,-0.33
10123.82,-0.66
10148.66,-0.25
10173.50,0.08
10198.35,0.05
10223.19,0.36
10248.03,1.21
10272.87,1.60
10297.72,1.22
10322.56,0.85
10347.40,-0.43
10372.25,-1.27
10397.09,-1.18
10421.93,-0.33
10446.77,0.39
10471.62,0.47
10496.46,0.39
10521.30,0.58
10546.14,0.71
10570.99,0.44
10595.83,-0.02
10620.67,-0.33
10645.51,-0.29
10670.36,0.01
10695.20,0.15
10720.04,-0.01
10744.88,-0.17
10769.73,-0.76
10794.57,-1.11
10819.41,-1.06
10844.25,-0.71
10869.10,0.18
10893.94,1.54
10918.78,2.42
10943.62,2.09
10968.47,0.87
10993.31,-0.39
11018.15,-0.94
11043.00,-0.70
11067.84,-0.42
11092.68,-0.48
11117.52,-0.50
11142.37,-0.52
11167.21,-0.44
11192.05,-0.51
11216.89,-0.68
11241.74,-0.81
11266.58,-1.13
11291.42,-1.84
11316.26,-2.54
11341.11,-2.32
11365.95,-1.07
11390.79,0.01
11415.63,-0.23
11440.48,-1.55
11465.32,-2.85
11490.16,-3.16
11515.00,-2.49
11539.85,-2.13
11564.69,-1.78
11589.53,-1.75
11614.37,-2.06
11639.22,-1.82
11664.06,-0.65
11688.90,0.62
11713.74,0.96
11738.59,0.56
11763.43,0.25
11788.27,0.42
11813.12,0.67
11837.96,0.44
11862.80,-0.14
11887.64,-0.51
11912.49,-0.49
11937.33,-0.29
11962.17,-0.09
11987.01,0.70
12011.86,1.21
12036.70,0.53
12061.54,-1.05
12086.38,-1.92
12111.23,-1.14
12136.07,0.68
12160.91,2.38
12185.75,3.30
12210.60,3.16
12235.44,2.20
12260.28,1.28
12285.12,0.89
12309.97,0.61
12334.81,0.17
12359.65,0.01
12384.49,-0.15
12409.34,-0.26
12434.18,-0.29
12459.02,-0.37
12483.86,-0.24
12508.71,0.73
12533.55,2.39
12558.39,3.43
12583.24,3.06
12608.08,1.80
12632.92,0.63
12657.76,0.19
12682.61,0.60
12707.45,1.41
12732.29,2.09
12757.13,2.24
12781.98,2.38
12806.82,2.35
12831.66,1.98
12856.50,0.73
12881.35,-1.39
12906.19,-2.67
12931.03,-1.78
12955.87,0.18
12980.72,1.43
13005.56,1.65
13030.40,1.63
13055.24,2.01
13080.09,2.53
13104.93,2.56
13129.77,1.89
13154.61,0.92
13179.46,0.70
13204.30,0.47
13229.14,1.04
13253.98,2.30
13278.83,3.20
13303.67,2.57
13328.51,0.89
13353.35,-0.03
13378.20,0.51
13403.04,1.64
13427.88,2.14
13452.73,1.32
13477.57,-0.20
13502.41,-0.87
13527.25,-0.15
13552.10,1.09
13576.94,1.45
13601.78,1.81
13626.62,1.84
13651.47,1.70
13676.31,1.44
13701.15,0.08
13725.99,-2.64
13750.84,-4.82
13775.68,-4.65
13800.52,-2.91
13825.36,-1.52
13850.21,-0.63
13875.05,0.75
13899.89,2.09
13924.73,2.03
13949.58,1.02
13974.42,0.47
13999.26,0.42
14024.10,0.36
14048.95,0.04
14073.79,-0.26
14098.63,-0.26
14123.47,-0.41
14148.32,-1.10
14173.16,-2.11
14198.00,-2.86
14222.85,-2.91
14247.69,-2.48
14272.53,-2.18
14297.37,-2.12
14322.22,-1.51
14347.06,0.27
14371.90,2.24
14396.74,2.81
14421.59,2.38
14446.43,1.95
14471.27,0.78
14496.11,-0.42
14520.96,-1.78
14545.80,-2.43
14570.64,-1.90
14595.48,-1.34
14620.33,-1.40
14645.17,-1.05
14670.01,0.29
14694.85,1.61
14719.70,1.48
14744.54,-0.27
14769.38,-2.31
14794.22,-3.46
14819.07,-3.67
14843.91,-3.87
14868.75,-3.95
14893.59,-3.60
14918.44,-2.80
14943.28,-2.08
14968.12,-1.97
14992.97,-1.92
15017.81,-0.95
15042.65,0.58
15067.49,1.52
15092.34,1.85
15117.18,2.32
15142.02,2.93
15166.86,3.24
15191.71,3.15
15216.55,2.64
15241.39,2.23
15266.23,1.83
15291.08,1.20
15315.92,0.97
15340.76,0.55
15365.60,-0.39
15390.45,-0.98
15415.29,-0.48
15440.13,0.63
15464.97,1.59
15489.82,1.86
15514.66,1.19
15539.50,0.30
15564.34,0.10
15589.19,0.25
15614.03,-0.14
15638.87,-0.63
15663.71,-1.12
15688.56,-1.77
15713.40,-1.35
15738.24,-0.16
15763.08,0.75
15787.93,0.58
15812.77,-0.23
15837.61,-0.37
15862.46,0.39
15887.30,0.93
15912.14,0.63
15936.98,-0.13
15961.83,-1.10
15986.67,-1.90
16011.51,-1.89
16036.35,-1.25
16061.20,-1.00
16086.04,-0.75
16110.88,-0.55
16135.72,-0.25
16160.57,0.10
16185.41,0.12
16210.25,0.04
16235.09,0.35
16259.94,0.65
16284.78,0.26
16309.62,-0.45
16334.46,-0.61
16359.31,-0.08
16384.15,0.38
16408.99,0.15
16433.84,-0.48
16458.68,-0.69
16483.52,-0.90
16508.36,-0.91
16533.21,-0.40
16558.05,0.48
16582.89,0.90
16607.73,0.48
16632.58,-0.36
16657.42,-1.25
16682.26,-1.92
16707.10,-2.12
16731.95,-1.87
16756.79,-1.15
16781.63,0.06
16806.47,1.34
16831.32,2.37
16856.16,3.36
16881.00,3.81
16905.84,4.27
16930.69,4.38
16955.53,3.14
16980.37,1.16
17005.21,-0.06
17030.06,0.23
17054.90,1.03
17079.74,1.39
17104.58,1.65
17129.43,2.19
17154.27,2.50
17179.11,2.10
17203.96,1.16
17228.80,0.10
17253.64,-0.90
17278.48,-1.30
17303.33,-0.90
17328.17,-0.49
17353.01,1.03
17377.85,2.09
17402.70,2.33
17427.54,1.81
17452.38,0.50
17477.22,-1.07
17502.07,-1.74
17526.91,-1.01
17551.75,0.27
17576.59,0.96
17601.44,0.68
17626.28,-0.38
17651.12,-1.53
17675.96,-1.83
17700.81,-1.52
17725.65,-1.22
17750.49,-0.57
17775.33,-0.29
17800.18,0.07
17825.02,0.65
17849.86,0.74
17874.71,0.06
17899.55,-0.52
17924.39,-0.53
17949.23,-0.70
17974.07,-1.15
17998.92,-1.06
18023.76,-0.18
18048.60,0.93
18073.45,1.82
18098.29,2.10
18123.13,1.68
18147.97,1.26
18172.82,-0.55
18197.66,-1.95
18222.50,-1.64
18247.34,-0.17
18272.19,0.74
18297.03,0.52
18321.87,-0.10
18346.71,-0.48
18371.56,-0.38
18396.40,0.04
18421.24,0.48
18446.08,0.91
18470.93,1.38
18495.77,1.50
18520.61,1.28
18545.46,1.05
