Size (bp),Intensity
0.58,1262.88
1.00,1055.32
2.00,703.90
2.42,383.79
2.84,183.66
3.26,91.41
3.68,58.38
4.10,48.98
4.52,48.24
4.94,47.51
5.36,48.00
5.79,48.30
6.21,48.10
6.63,46.85
7.05,43.60
7.47,38.42
7.89,32.30
8.31,26.19
8.73,20.89
9.15,16.99
9.57,14.54
9.99,13.14
10.41,12.14
10.83,11.30
11.25,10.74
11.67,10.38
12.09,10.02
12.52,8.78
12.94,7.75
13.36,7.66
13.78,8.11
14.20,8.52
14.62,9.01
15.04,10.03
15.46,12.37
15.88,18.06
16.30,28.39
16.72,39.83
17.14,45.07
17.56,40.07
17.98,28.37
18.40,17.19
18.82,13.89
19.24,10.60
19.67,7.74
20.09,6.26
20.51,5.15
20.93,4.64
21.35,4.80
21.77,4.89
22.19,4.41
22.61,3.92
23.03,3.76
23.45,3.34
23.87,2.30
24.29,1.11
24.71,0.58
25.13,1.17
25.55,2.29
25.97,2.65
26.39,3.00
26.82,3.16
27.24,3.05
27.66,2.69
28.08,2.26
28.50,1.97
28.92,1.70
29.34,1.55
29.76,1.77
30.18,1.95
30.60,1.57
31.02,1.23
31.44,1.50
31.86,1.92
32.28,1.97
32.70,1.78
33.12,1.59
33.55,0.98
33.97,0.70
34.39,1.05
34.81,1.49
35.23,1.33
35.65,0.66
36.07,0.28
36.49,0.76
36.91,1.78
37.33,2.60
37.75,2.90
38.17,2.63
38.59,2.04
39.01,1.66
39.43,1.60
39.85,1.78
40.27,1.96
40.70,3.27
41.12,5.04
41.54,5.64
41.96,4.87
42.38,4.47
42.80,5.29
43.22,6.09
43.64,5.81
44.06,5.20
44.48,5.27
44.90,5.82
45.32,6.38
45.74,6.91
46.16,6.89
46.58,5.44
47.00,4.32
47.42,3.20
47.85,2.22
48.27,3.43
48.69,5.43
49.11,6.34
49.53,6.17
49.95,6.11
50.37,6.28
50.79,6.05
51.21,5.60
51.63,5.86
52.05,6.97
52.47,7.86
52.89,8.02
53.31,8.41
53.73,9.31
54.15,9.35
54.58,9.39
55.00,8.16
55.42,6.81
55.84,6.58
56.26,7.62
56.68,9.34
57.10,11.14
57.52,12.59
57.94,13.52
58.36,14.21
58.78,15.12
59.20,16.21
59.62,17.04
60.04,17.28
60.46,17.19
60.88,17.28
61.30,17.36
61.73,17.52
62.15,16.50
62.57,14.06
62.99,11.55
63.41,10.22
63.83,9.79
64.25,8.87
64.67,6.98
65.09,5.06
65.51,4.13
65.93,4.57
66.35,6.13
66.77,7.74
67.19,8.20
67.61,7.53
68.03,7.21
68.45,6.89
68.88,7.08
69.30,7.85
69.72,8.51
70.14,8.64
70.56,8.12
70.98,7.27
71.40,6.88
71.82,7.26
72.24,7.71
72.66,7.76
73.08,7.58
73.50,7.47
73.92,7.46
74.34,7.13
74.76,6.46
75.18,6.28
75.61,6.09
76.03,6.19
76.45,6.21
76.87,5.88
77.29,5.37
77.71,4.89
78.13,4.92
78.55,5.80
78.97,6.77
79.39,6.68
79.81,5.52
80.23,4.28
80.65,3.55
81.07,3.60
81.49,4.74
81.91,6.43
82.33,6.95
82.76,7.46
83.18,7.50
83.60,6.75
84.02,5.53
84.44,4.66
84.86,4.30
85.28,3.87
85.70,3.79
86.12,4.81
86.54,6.28
86.96,7.19
87.38,7.30
87.80,6.62
88.22,4.97
88.64,2.84
89.06,2.27
89.48,1.69
89.91,2.18
90.33,3.38
90.75,4.26
91.17,4.40
91.59,3.81
92.01,3.16
92.43,3.05
92.85,3.09
93.27,3.14
93.69,3.89
94.11,4.78
94.53,4.19
94.95,2.52
95.37,2.09
95.79,3.51
96.21,4.37
96.64,5.23
97.06,6.19
97.48,6.40
97.90,6.15
98.32,6.04
98.74,6.28
99.16,6.23
99.58,5.77
100.00,5.77
101.00,6.60
101.52,7.42
102.04,7.68
102.56,7.78
103.08,7.91
103.61,7.82
104.13,7.18
104.65,6.45
105.17,5.73
105.69,3.95
106.21,3.30
106.73,4.58
107.25,6.72
107.77,8.13
108.29,8.61
108.82,8.90
109.34,9.38
109.86,9.63
110.38,9.13
110.90,8.27
111.42,8.07
111.94,8.39
112.46,8.27
112.98,7.86
113.51,7.94
114.03,8.02
114.55,8.78
115.07,9.59
115.59,10.05
116.11,10.06
116.63,9.99
117.15,9.84
117.67,9.37
118.19,9.12
118.72,9.48
119.24,9.80
119.76,9.49
120.28,8.59
120.80,7.73
121.32,8.00
121.84,8.57
122.36,9.14
122.88,9.66
123.41,9.49
123.93,9.65
124.45,10.10
124.97,10.44
125.49,10.59
126.01,10.44
126.53,10.16
127.05,10.27
127.57,10.65
128.09,10.65
128.62,10.03
129.14,9.25
129.66,9.12
130.18,9.82
130.70,10.19
131.22,10.56
131.74,10.55
132.26,10.24
132.78,10.55
133.31,11.24
133.83,11.32
134.35,10.72
134.87,10.22
135.39,10.19
135.91,10.16
136.43,9.60
136.95,8.54
137.47,7.76
137.99,8.09
138.52,9.10
139.04,9.79
139.56,10.03
140.08,10.27
140.60,10.85
141.12,10.95
141.64,10.58
142.16,10.86
142.68,11.90
143.21,12.31
143.73,11.48
144.25,10.23
144.77,9.66
145.29,10.46
145.81,12.44
146.33,14.31
146.85,14.59
147.37,13.31
147.89,11.91
148.42,11.67
148.94,11.44
149.46,12.01
149.98,13.32
150.50,14.76
151.02,15.70
151.54,16.13
152.06,16.46
152.58,17.21
153.11,18.46
153.63,19.51
154.15,19.92
154.67,20.05
155.19,20.05
155.71,19.99
156.23,20.53
156.75,21.27
157.27,22.01
157.79,23.78
158.32,24.91
158.84,25.27
159.36,25.70
159.88,27.04
160.40,29.26
160.92,31.47
161.44,32.85
161.96,33.58
162.48,34.52
163.01,35.79
163.53,36.51
164.05,36.25
164.57,35.89
165.09,36.18
165.61,36.27
166.13,36.35
166.65,35.92
167.17,35.92
167.69,36.89
168.22,37.74
168.74,37.74
169.26,37.71
169.78,38.54
170.30,40.02
170.82,41.58
171.34,43.21
171.86,45.09
172.38,47.28
172.91,49.68
173.43,52.02
173.95,53.94
174.47,54.70
174.99,55.46
175.51,57.01
176.03,59.15
176.55,62.23
177.07,66.11
177.59,70.00
178.12,73.26
178.64,76.29
179.16,79.89
179.68,84.11
180.20,88.86
180.72,94.35
181.24,100.41
181.76,106.56
182.28,112.51
182.81,118.42
183.33,121.58
183.85,124.74
184.37,131.99
184.89,140.60
185.41,150.37
185.93,160.09
186.45,169.11
186.97,178.96
187.49,191.32
188.02,205.40
188.54,219.57
189.06,233.62
189.58,247.66
190.10,261.00
190.62,273.02
191.14,283.88
191.66,289.02
192.18,294.15
192.71,304.14
193.23,314.20
193.75,324.96
194.27,336.47
194.79,347.85
195.31,358.21
195.83,368.00
196.35,378.24
196.87,389.03
197.39,400.15
197.92,411.92
198.44,424.43
198.96,437.19
199.48,450.24
200.00,464.43
201.00,472.31
201.59,480.19
202.17,497.06
202.76,514.15
203.34,531.36
203.93,549.96
204.51,571.08
205.10,594.12
205.69,618.32
206.27,644.42
206.86,672.33
207.44,699.41
208.03,723.63
208.62,747.09
209.20,773.45
209.79,803.01
210.37,832.86
210.96,846.76
211.54,860.66
212.13,886.19
212.72,910.20
213.30,933.57
213.89,956.70
214.47,978.41
215.06,997.71
215.64,1016.05
216.23,1035.68
216.82,1057.86
217.40,1083.01
217.99,1110.30
218.57,1138.63
219.16,1168.79
219.75,1202.24
220.33,1238.93
220.92,1258.14
221.50,1277.34
222.09,1315.42
222.67,1351.13
223.26,1383.09
223.85,1411.63
224.43,1438.72
225.02,1465.55
225.60,1491.64
226.19,1516.71
226.78,1541.27
227.36,1565.45
227.95,1588.62
228.53,1610.25
229.12,1630.35
229.70,1649.26
230.29,1658.40
230.88,1667.54
231.46,1685.96
232.05,1705.51
232.63,1727.77
233.22,1753.44
233.80,1780.99
234.39,1809.43
234.98,1840.17
235.56,1873.94
236.15,1909.24
236.73,1944.33
237.32,1978.55
237.91,2012.37
238.49,2046.26
239.08,2078.28
239.66,2104.95
240.25,2115.38
240.83,2125.80
241.42,2143.94
242.01,2162.71
242.59,2184.54
243.18,2211.78
243.76,2245.94
244.35,2286.16
244.93,2328.76
245.52,2369.24
246.11,2405.06
246.69,2434.72
247.28,2456.42
247.86,2471.07
248.45,2483.07
249.04,2494.35
249.62,2502.29
250.21,2504.22
250.79,2506.14
251.38,2509.14
251.96,2513.85
252.55,2520.90
253.14,2530.59
253.72,2542.00
254.31,2552.08
254.89,2556.85
255.48,2553.51
256.07,2541.34
256.65,2521.56
257.24,2498.06
257.82,2476.39
258.41,2460.19
258.99,2449.98
259.58,2444.92
260.17,2444.58
260.75,2444.25
261.34,2446.84
261.92,2449.80
262.51,2449.00
263.09,2442.09
263.68,2429.65
264.27,2413.75
264.85,2395.80
265.44,2375.86
266.02,2354.58
266.61,2335.32
267.20,2322.21
267.78,2316.40
268.37,2316.09
268.95,2319.86
269.54,2323.62
270.12,2327.38
270.71,2337.46
271.30,2348.28
271.88,2357.58
272.47,2361.78
273.05,2359.03
273.64,2351.79
274.22,2343.48
274.81,2335.71
275.40,2329.11
275.98,2323.30
276.57,2316.55
277.15,2308.38
277.74,2301.13
278.33,2296.06
278.91,2291.06
279.50,2287.80
280.08,2284.55
280.67,2277.25
281.25,2269.46
281.84,2260.10
282.43,2248.29
283.01,2233.78
283.60,2216.83
284.18,2198.27
284.77,2179.76
285.36,2164.03
285.94,2153.68
286.53,2149.78
287.11,2151.81
287.70,2158.07
288.28,2166.49
288.87,2175.48
289.46,2179.02
290.04,2182.56
290.63,2183.78
291.21,2175.92
291.80,2158.51
292.38,2133.62
292.97,2105.64
293.56,2080.59
294.14,2062.69
294.73,2051.80
295.31,2045.76
295.90,2042.68
296.49,2041.18
297.07,2040.22
297.66,2038.45
298.24,2034.79
298.83,2029.55
299.41,2026.52
300.00,2023.49
301.00,2017.04
301.70,2012.25
302.39,2012.63
303.09,2019.75
303.79,2031.37
304.49,2042.67
305.18,2049.93
305.88,2054.42
306.58,2060.97
307.27,2071.10
307.97,2080.82
308.67,2086.95
309.37,2090.29
310.06,2091.36
310.76,2090.24
311.46,2089.13
312.15,2084.80
312.85,2081.49
313.55,2080.04
314.25,2078.15
314.94,2073.92
315.64,2068.53
316.34,2063.51
317.04,2056.09
317.73,2041.04
318.43,2016.86
319.13,1986.28
319.82,1951.00
320.52,1910.68
321.22,1867.52
321.92,1826.53
322.61,1808.59
323.31,1790.66
324.01,1759.69
324.70,1732.91
325.40,1710.15
326.10,1690.81
326.80,1673.73
327.49,1658.22
328.19,1644.21
328.89,1630.97
329.58,1616.71
330.28,1600.68
330.98,1584.51
331.68,1569.39
332.37,1554.28
333.07,1539.27
333.77,1527.09
334.46,1523.08
335.16,1519.07
335.86,1513.23
336.56,1507.19
337.25,1500.30
337.95,1492.83
338.65,1485.20
339.35,1478.53
340.04,1474.05
340.74,1471.45
341.44,1470.10
342.13,1470.60
342.83,1473.51
343.53,1477.90
344.23,1481.69
344.92,1482.56
345.62,1479.96
346.32,1477.67
347.01,1475.38
347.71,1470.04
348.41,1463.31
349.11,1453.62
349.80,1440.70
350.50,1426.58
351.20,1413.69
351.89,1403.21
352.59,1395.78
353.29,1392.56
353.99,1394.89
354.68,1402.90
355.38,1414.45
356.08,1425.31
356.77,1431.17
357.47,1430.66
358.17,1430.14
358.87,1423.30
359.56,1413.36
360.26,1402.62
360.96,1392.03
361.65,1382.12
362.35,1372.67
363.05,1361.86
363.75,1349.02
364.44,1337.18
365.14,1329.04
365.84,1322.23
366.54,1312.83
367.23,1301.11
367.93,1290.13
368.63,1281.20
369.32,1277.35
370.02,1273.50
370.72,1266.17
371.42,1258.78
372.11,1250.94
372.81,1242.74
373.51,1234.57
374.20,1226.31
374.90,1217.83
375.60,1209.67
376.30,1202.30
376.99,1195.90
377.69,1191.18
378.39,1188.65
379.08,1187.72
379.78,1187.89
380.48,1189.29
381.18,1190.30
381.87,1191.30
382.57,1192.81
383.27,1193.59
383.96,1194.23
384.66,1194.89
385.36,1195.08
386.06,1193.90
386.75,1190.39
387.45,1185.03
388.15,1180.03
388.85,1176.49
389.54,1172.82
390.24,1166.63
390.94,1156.67
391.63,1143.64
392.33,1129.92
393.03,1123.97
393.73,1118.02
394.42,1109.51
395.12,1104.87
395.82,1104.03
396.51,1106.94
397.21,1112.88
397.91,1119.96
398.61,1126.55
399.30,1132.51
400.00,1137.90
401.00,1141.94
401.72,1144.27
402.45,1145.41
403.17,1145.21
403.89,1143.34
404.61,1142.13
405.34,1140.92
406.06,1139.08
406.78,1136.99
407.50,1133.82
408.23,1130.74
408.95,1128.93
409.67,1127.08
410.39,1121.66
411.12,1109.75
411.84,1091.88
412.56,1070.84
413.28,1048.65
414.01,1027.23
414.73,1009.16
415.45,995.16
416.18,983.94
416.90,979.18
417.62,974.42
418.34,965.64
419.07,956.66
419.79,946.81
420.51,934.68
421.23,918.99
421.96,901.43
422.68,885.53
423.40,873.34
424.12,864.99
424.85,859.94
425.57,857.45
426.29,856.45
427.01,856.04
427.74,855.72
428.46,855.21
429.18,854.86
429.91,854.52
430.63,853.62
431.35,851.70
432.07,848.28
432.80,844.48
433.52,841.61
434.24,839.94
434.96,839.43
435.69,839.90
436.41,841.44
437.13,844.61
437.85,849.50
438.58,855.43
439.30,860.79
440.02,862.57
440.74,858.56
441.47,854.35
442.19,850.14
442.91,840.52
443.64,830.85
444.36,820.10
445.08,807.61
445.80,793.91
446.53,780.17
447.25,768.16
447.97,759.63
448.69,755.20
449.42,754.40
450.14,755.98
450.86,757.53
451.58,757.04
452.31,754.54
453.03,750.53
453.75,747.61
454.47,744.69
455.20,737.59
455.92,730.86
456.64,725.43
457.36,721.29
458.09,717.84
458.81,714.14
459.53,709.31
460.26,702.36
460.98,692.51
461.70,680.56
462.42,669.14
463.15,660.36
463.87,653.89
464.59,648.13
465.31,644.93
466.04,641.73
466.76,633.99
467.48,625.34
468.20,616.94
468.93,609.67
469.65,603.69
470.37,598.77
471.09,595.21
471.82,593.42
472.54,592.44
473.26,590.52
473.99,587.13
474.71,583.13
475.43,579.45
476.15,576.29
476.88,573.33
477.60,571.80
478.32,570.27
479.04,566.91
479.77,562.74
480.49,557.54
481.21,551.70
481.93,545.61
482.66,539.60
483.38,533.68
484.10,527.40
484.82,521.06
485.55,515.78
486.27,511.69
486.99,507.75
487.72,503.63
488.44,500.37
489.16,499.14
489.88,499.46
490.61,499.78
491.33,500.97
492.05,501.49
492.77,500.66
493.50,498.13
494.22,493.92
494.94,488.36
495.66,482.19
496.39,476.58
497.11,472.19
497.83,468.39
498.55,464.45
499.28,461.14
500.00,459.30
501.00,457.93
502.01,455.55
503.02,453.73
504.03,451.90
505.04,447.42
506.05,443.22
507.06,440.41
508.07,438.66
509.08,437.18
510.09,436.10
511.10,435.87
512.11,436.28
513.12,435.93
514.13,432.90
515.14,426.79
516.15,419.14
517.16,411.94
518.17,406.10
519.18,403.62
520.19,401.14
521.20,396.68
522.21,393.32
523.22,391.70
524.23,391.36
525.24,391.30
526.26,390.68
527.27,388.51
528.28,383.92
529.29,377.33
530.30,370.30
531.31,363.74
532.32,357.47
533.33,351.49
534.34,346.10
535.35,341.48
536.36,339.43
537.37,337.38
538.38,333.10
539.39,329.02
540.40,326.60
541.41,325.60
542.42,324.44
543.43,322.97
544.44,322.07
545.45,321.96
546.46,322.66
547.47,323.98
548.48,324.90
549.49,324.64
550.50,323.39
551.51,321.41
552.52,318.90
553.53,317.66
554.54,316.42
555.55,313.87
556.56,310.92
557.57,308.22
558.58,306.19
559.59,304.67
560.60,303.98
561.61,303.56
562.62,301.58
563.63,298.02
564.64,294.73
565.65,292.18
566.66,289.15
567.67,284.95
568.68,280.28
569.69,276.18
570.70,274.64
571.71,273.10
572.72,270.90
573.73,268.86
574.74,266.17
575.76,262.86
576.77,259.71
577.78,257.02
578.79,254.28
579.80,251.58
580.81,249.86
581.82,248.74
582.83,246.83
583.84,244.59
584.85,243.65
585.86,244.09
586.87,244.23
587.88,244.38
588.89,243.52
589.90,242.15
590.91,241.23
591.92,240.45
592.93,238.81
593.94,236.13
594.95,233.13
595.96,230.62
596.97,228.63
597.98,226.40
598.99,223.41
600.00,220.27
601.00,217.99
602.18,216.70
603.36,215.60
604.54,214.91
605.71,214.22
606.89,212.86
608.07,211.75
609.25,210.91
610.43,210.77
611.61,211.23
612.79,211.37
613.96,210.97
615.14,210.35
616.32,209.51
617.50,208.27
618.68,206.09
619.86,202.40
621.04,198.25
622.21,195.63
623.39,195.02
624.57,194.98
625.75,194.95
626.93,193.75
628.11,191.16
629.29,188.36
630.46,186.47
631.64,185.04
632.82,182.98
634.00,180.26
635.18,177.47
636.36,175.24
637.54,174.25
638.71,173.93
639.89,172.67
641.07,170.43
642.25,168.75
643.43,168.35
644.61,168.34
645.79,168.33
646.96,167.34
648.14,165.15
649.32,162.61
650.50,160.22
651.68,158.33
652.86,157.08
654.04,155.65
655.21,153.25
656.39,150.23
657.57,147.47
658.75,145.49
659.93,144.26
661.11,143.71
662.29,144.07
663.46,144.50
664.64,144.92
665.82,145.10
667.00,144.13
668.18,142.68
669.36,141.34
670.54,139.86
671.71,137.91
672.89,135.81
674.07,133.97
675.25,132.35
676.43,131.01
677.61,130.20
678.79,129.83
679.96,129.63
681.14,129.41
682.32,128.60
683.50,127.57
684.68,126.54
685.86,123.48
687.04,120.25
688.21,117.44
689.39,115.38
690.57,113.99
691.75,113.09
692.93,113.03
694.11,113.69
695.29,113.91
696.46,113.47
697.64,113.27
698.82,113.11
700.00,112.06
701.00,110.42
702.98,108.88
704.96,108.00
706.94,107.12
708.92,105.01
710.90,103.78
712.88,104.12
714.86,104.58
716.84,103.38
718.82,100.73
720.80,98.20
722.78,96.95
724.76,96.81
726.74,96.75
728.72,96.24
730.70,95.88
732.68,96.43
734.66,97.42
736.64,97.59
738.62,97.13
740.60,96.67
742.58,95.54
744.56,94.82
746.54,94.42
748.52,93.83
750.50,92.47
752.48,90.39
754.46,88.41
756.44,86.93
758.42,85.71
760.40,85.09
762.38,85.56
764.36,86.22
766.34,85.79
768.32,84.43
770.30,83.58
772.28,82.73
774.26,80.64
776.24,78.55
778.22,77.43
780.20,77.33
782.18,77.17
784.16,76.39
786.14,75.81
788.12,75.92
790.10,75.91
792.08,75.19
794.06,74.57
796.04,74.90
798.02,75.52
800.00,75.00
801.00,73.30
803.36,72.55
805.71,71.79
808.07,71.45
810.43,72.01
812.79,72.63
815.14,72.53
817.50,71.71
819.86,70.98
822.21,70.62
824.57,69.73
826.93,67.97
829.29,66.44
831.64,66.44
834.00,67.63
836.36,67.70
838.71,65.48
841.07,62.99
843.43,62.45
845.79,61.91
848.14,61.33
850.50,60.38
852.86,59.64
855.21,59.31
857.57,58.86
859.93,58.11
862.29,57.13
864.64,55.92
867.00,54.75
869.36,53.83
871.71,53.02
874.07,52.11
876.43,50.90
878.79,49.62
881.14,49.23
883.50,49.64
885.86,50.05
888.21,50.96
890.57,50.80
892.93,49.82
895.29,48.90
897.64,47.83
900.00,46.00
901.00,44.49
904.67,44.68
908.33,45.62
912.00,45.25
915.67,43.56
919.33,42.39
923.00,42.60
926.67,43.10
930.33,42.89
934.00,42.68
937.67,41.75
941.33,41.44
945.00,41.95
948.67,42.93
952.33,44.04
956.00,44.63
959.67,43.98
963.33,42.19
967.00,40.24
970.67,38.91
974.33,37.80
978.00,35.99
981.67,33.79
985.33,32.62
989.00,32.91
992.67,33.30
996.33,33.69
1000.00,34.43
1001.00,35.42
1006.10,36.61
1011.21,37.42
1016.31,37.50
1021.41,36.91
1026.51,36.20
1031.62,36.18
1036.72,36.86
1041.82,37.08
1046.92,35.96
1052.03,33.82
1057.13,31.82
1062.23,30.87
1067.33,31.09
1072.44,31.72
1077.54,32.35
1082.64,34.02
1087.74,34.73
1092.85,33.99
1097.95,32.93
1103.05,32.19
1108.15,31.33
1113.26,30.29
1118.36,29.49
1123.46,29.18
1128.56,29.26
1133.67,29.39
1138.77,29.41
1143.87,29.66
1148.97,30.09
1154.08,29.84
1159.18,29.29
1164.28,28.73
1169.38,27.77
1174.49,27.58
1179.59,27.74
1184.69,27.57
1189.79,26.75
1194.90,25.67
1200.00,25.36
1201.00,26.19
1210.06,27.37
1219.12,27.77
1228.18,27.06
1237.24,25.81
1246.30,24.64
1255.36,23.91
1264.42,24.01
1273.48,24.12
1282.55,25.01
1291.61,25.45
1300.67,25.28
1309.73,25.38
1318.79,25.66
1327.85,25.49
1336.91,25.34
1345.97,25.89
1355.03,26.52
1364.09,26.21
1373.15,25.22
1382.21,24.48
1391.27,23.87
1400.33,22.98
1409.39,22.33
1418.45,22.32
1427.52,22.32
1436.58,22.32
1445.64,21.91
1454.70,21.71
1463.76,22.40
1472.82,23.89
1481.88,25.33
1490.94,25.55
1500.00,24.06
1501.00,21.62
1510.24,19.53
1519.48,18.77
1528.72,19.78
1537.96,22.16
1547.20,24.48
1556.44,25.06
1565.69,24.36
1574.93,23.67
1584.17,21.92
1593.41,21.11
1602.65,21.02
1611.89,21.09
1621.13,21.15
1630.37,21.41
1639.61,22.30
1648.85,23.72
1658.09,24.46
1667.33,23.71
1676.57,22.58
1685.81,22.52
1695.06,23.13
1704.30,22.86
1713.54,21.40
1722.78,20.60
1732.02,19.81
1741.26,18.87
1750.50,18.36
1759.74,17.91
1768.98,18.07
1778.22,19.56
1787.46,21.70
1796.70,23.00
1805.94,22.84
1815.19,21.94
1824.43,21.32
1833.67,21.10
1842.91,20.71
1852.15,19.86
1861.39,18.67
1870.63,18.21
1879.87,17.74
1889.11,17.69
1898.35,18.34
1907.59,19.06
1916.83,19.67
1926.07,19.86
1935.31,19.33
1944.56,18.71
1953.80,18.79
1963.04,19.53
1972.28,20.30
1981.52,20.38
1990.76,19.68
2000.00,18.90
2001.00,18.35
2018.22,17.86
2035.45,17.78
2052.67,17.70
2069.90,18.11
2087.12,18.58
2104.34,18.68
2121.57,18.25
2138.79,17.28
2156.02,16.44
2173.24,16.47
2190.47,17.18
2207.69,17.84
2224.91,18.03
2242.14,18.00
2259.36,18.44
2276.59,19.27
2293.81,19.66
2311.03,19.34
2328.26,18.98
2345.48,18.62
2362.71,18.06
2379.93,18.11
2397.16,18.46
2414.38,18.33
2431.60,17.49
2448.83,16.51
2466.05,16.12
2483.28,16.24
2500.50,16.35
2517.72,16.52
2534.95,17.03
2552.17,17.67
2569.40,17.70
2586.62,16.39
2603.84,14.38
2621.07,13.87
2638.29,13.37
2655.52,13.60
2672.74,13.62
2689.97,13.08
2707.19,13.55
2724.41,15.74
2741.64,17.87
2758.86,17.90
2776.09,16.04
2793.31,14.05
2810.53,13.11
2827.76,13.27
2844.98,13.90
2862.21,14.12
2879.43,13.61
2896.66,13.48
2913.88,13.36
2931.10,14.36
2948.33,15.82
2965.55,16.35
2982.78,15.73
3000.00,14.39
3001.00,12.92
3025.99,12.02
3050.98,11.91
3075.98,12.32
3100.97,12.68
3125.96,12.45
3150.95,12.02
3175.94,12.38
3200.93,13.21
3225.93,12.96
3250.92,12.12
3275.91,11.28
3300.90,9.53
3325.89,9.00
3350.88,9.82
3375.87,11.23
3400.87,12.17
3425.86,12.20
3450.85,11.98
3475.84,12.24
3500.83,12.87
3525.82,13.56
3550.82,14.26
3575.81,14.87
3600.80,15.09
3625.79,14.72
3650.78,14.29
3675.77,14.48
3700.77,14.68
3725.76,15.06
3750.75,13.45
3775.74,10.52
3800.73,9.16
3825.73,10.15
3850.72,11.40
3875.71,11.42
3900.70,10.98
3925.69,11.47
3950.68,12.72
3975.68,12.99
4000.67,11.37
4025.66,9.59
4050.65,9.69
4075.64,11.14
4100.63,11.68
4125.62,12.22
4150.62,12.49
4175.61,12.62
4200.60,12.86
4225.59,12.88
4250.58,12.27
4275.58,10.40
4300.57,7.46
4325.56,5.43
4350.55,5.61
4375.54,7.03
4400.53,8.71
4425.52,10.65
4450.52,12.37
4475.51,12.67
4500.50,11.92
4525.49,11.17
4550.48,9.03
4575.48,7.77
4600.47,7.63
4625.46,7.87
4650.45,8.18
4675.44,8.66
4700.43,9.14
4725.42,9.66
4750.42,10.09
4775.41,9.85
4800.40,9.25
4825.39,9.52
4850.38,10.97
4875.37,12.58
4900.37,13.23
4925.36,12.84
4950.35,12.45
4975.34,10.90
5000.33,9.97
5025.33,10.33
5050.32,11.57
5075.31,12.85
5100.30,13.37
5125.29,12.76
5150.28,11.70
5175.27,11.38
5200.27,12.32
5225.26,14.34
5250.25,17.01
5275.24,19.59
5300.23,21.13
5325.23,21.13
5350.22,20.60
5375.21,20.07
5400.20,18.93
5425.19,18.20
5450.18,17.76
5475.17,17.44
5500.17,17.02
5525.16,16.44
5550.15,15.92
5575.14,15.68
5600.13,16.05
5625.12,17.00
5650.12,17.80
5675.11,18.23
5700.10,20.85
5725.09,32.43
5750.08,65.56
5775.08,103.49
5800.07,141.42
5825.06,287.91
5850.05,525.79
5875.04,850.09
5900.03,1224.65
5925.02,1592.02
5950.02,1885.60
5975.01,2041.76
6000.00,2018.73
6024.79,1817.82
6049.64,1489.30
6074.48,1112.38
6099.32,761.18
6124.16,480.58
6149.01,283.45
6173.85,221.92
6198.69,160.40
6223.53,91.78
6248.38,57.33
6273.22,41.46
6298.06,34.15
6322.90,29.95
6347.75,26.45
6372.59,23.05
6397.43,20.13
6422.27,18.24
6447.12,17.40
6471.96,17.10
6496.80,16.76
6521.65,16.12
6546.49,15.44
6571.33,14.90
6596.17,14.52
6621.02,14.15
6645.86,13.24
6670.70,13.17
6695.54,14.03
6720.39,14.25
6745.23,12.79
6770.07,10.34
6794.91,8.18
6819.76,7.17
6844.60,7.55
6869.44,9.00
6894.28,10.65
6919.13,11.49
6943.97,11.20
6968.81,9.84
6993.65,7.75
7018.50,6.84
7043.34,5.93
7068.18,5.13
7093.02,4.81
7117.87,4.11
7142.71,3.19
7167.55,2.86
7192.39,3.47
7217.24,4.38
7242.08,5.06
7266.92,5.81
7291.77,6.37
7316.61,5.75
7341.45,4.24
7366.29,3.10
7391.14,2.56
7415.98,2.25
7440.82,2.23
7465.66,2.20
7490.51,2.11
7515.35,1.63
7540.19,1.55
7565.03,2.78
7589.88,4.56
7614.72,5.39
7639.56,5.07
7664.40,4.60
7689.25,4.38
7714.09,4.09
7738.93,3.92
7763.77,4.24
7788.62,4.57
7813.46,4.16
7838.30,3.71
7863.14,3.26
7887.99,2.86
7912.83,3.03
7937.67,2.88
7962.51,2.13
7987.36,1.44
8012.20,1.56
8037.04,2.62
8061.89,3.80
8086.73,4.03
8111.57,3.57
8136.41,3.29
8161.26,2.92
8186.10,1.62
8210.94,-0.09
8235.78,-0.78
8260.63,-0.33
8285.47,0.11
8310.31,1.51
8335.15,1.99
8360.00,1.59
8384.84,1.38
8409.68,1.78
8434.52,2.47
8459.37,3.37
8484.21,4.59
8509.05,5.76
8533.89,6.30
8558.74,5.94
8583.58,5.01
8608.42,4.29
8633.26,4.09
8658.11,3.94
8682.95,3.84
8707.79,3.74
8732.63,3.63
8757.48,3.27
8782.32,2.57
8807.16,2.17
8832.00,2.73
8856.85,4.05
8881.69,4.89
8906.53,4.43
8931.37,3.28
8956.22,2.45
8981.06,2.06
9005.90,1.96
9030.75,2.43
9055.59,3.43
9080.43,4.14
9105.27,4.04
9130.12,3.95
9154.96,3.22
9179.80,2.36
9204.64,1.46
9229.49,1.05
9254.33,1.46
9279.17,1.84
9304.01,1.66
9328.86,1.27
9353.70,0.76
9378.54,0.24
9403.38,0.64
9428.23,2.44
9453.07,4.41
9477.91,4.75
9502.75,4.15
9527.60,3.55
9552.44,2.54
9577.28,2.53
9602.12,2.76
9626.97,2.44
9651.81,1.39
9676.65,0.21
9701.50,-0.02
9726.34,0.95
9751.18,2.03
9776.02,2.27
9800.87,1.90
9825.71,1.80
9850.55,2.31
9875.39,2.70
9900.24,2.42
9925.08,2.14
9949.92,1.86
9974.76,1.54
9999.61,1.46
10024.45,1.59
10049.29,1.86
10074.13,1.83
10098.98,1.22
10123.82,0.54
10148.66,0.45
10173.50,0.85
10198.35,1.01
10223.19,0.59
10248.03,0.18
10272.87,0.22
10297.72,0.38
10322.56,0.28
10347.40,0.21
10372.25,0.14
10397.09,0.22
10421.93,0.33
10446.77,0.23
10471.62,-0.12
10496.46,-0.46
10521.30,-0.33
10546.14,0.45
10570.99,1.21
10595.83,0.94
10620.67,-0.27
10645.51,-1.13
10670.36,-0.66
10695.20,0.50
10720.04,1.19
10744.88,1.38
10769.73,1.55
10794.57,1.71
10819.41,2.08
10844.25,1.87
10869.10,1.41
10893.94,1.51
10918.78,2.04
10943.62,2.25
10968.47,1.98
10993.31,1.73
11018.15,2.02
11043.00,2.97
11067.84,4.09
11092.68,4.54
11117.52,3.95
11142.37,2.69
11167.21,2.13
11192.05,1.57
11216.89,1.13
11241.74,1.48
11266.58,2.23
11291.42,2.62
11316.26,2.52
11341.11,2.74
11365.95,3.52
11390.79,3.76
11415.63,2.76
11440.48,1.59
11465.32,1.50
11490.16,2.00
11515.00,1.88
11539.85,1.53
11564.69,2.37
11589.53,3.22
11614.37,4.08
11639.22,4.74
11664.06,3.97
11688.90,3.21
11713.74,3.14
11738.59,3.22
11763.43,3.19
11788.27,3.35
11813.12,3.96
11837.96,5.12
11862.80,6.42
11887.64,6.86
11912.49,6.19
11937.33,5.57
11962.17,5.79
11987.01,6.23
12011.86,6.18
12036.70,6.14
12061.54,5.65
12086.38,5.30
12111.23,5.10
12136.07,4.60
12160.91,3.68
12185.75,2.87
12210.60,2.59
12235.44,2.52
12260.28,2.10
12285.12,1.19
12309.97,0.04
12334.81,-0.78
12359.65,-0.61
12384.49,0.66
12409.34,2.08
12434.18,2.21
12459.02,2.34
12483.86,1.31
12508.71,0.15
12533.55,-0.33
12558.39,0.02
12583.24,1.08
12608.08,2.04
12632.92,1.93
12657.76,1.14
12682.61,0.89
12707.45,1.61
12732.29,2.72
12757.13,3.46
12781.98,3.64
12806.82,3.90
12831.66,4.22
12856.50,4.53
12881.35,4.63
12906.19,3.63
12931.03,2.13
12955.87,1.04
12980.72,1.14
13005.56,2.49
13030.40,3.83
13055.24,3.93
13080.09,2.88
13104.93,1.47
13129.77,0.33
13154.61,0.17
13179.46,1.18
13204.30,2.30
13229.14,2.45
13253.98,2.17
13278.83,1.89
13303.67,1.62
13328.51,1.61
13353.35,0.93
13378.20,-0.27
13403.04,-0.55
13427.88,0.69
13452.73,2.27
13477.57,2.67
13502.41,1.65
13527.25,0.32
13552.10,-0.15
13576.94,0.22
13601.78,0.70
13626.62,0.99
13651.47,1.35
13676.31,1.71
13701.15,2.07
13725.99,2.62
13750.84,2.25
13775.68,1.56
13800.52,1.85
13825.36,2.60
13850.21,2.17
13875.05,0.86
13899.89,0.48
13924.73,1.11
13949.58,1.27
13974.42,0.54
13999.26,-0.26
14024.10,-0.42
14048.95,-0.17
14073.79,-0.01
14098.63,0.16
14123.47,0.33
14148.32,1.20
14173.16,1.92
14198.00,2.06
14222.85,1.98
14247.69,1.89
14272.53,1.72
14297.37,1.48
14322.22,1.25
14347.06,1.06
14371.90,0.66
14396.74,0.05
14421.59,0.01
14446.43,0.95
14471.27,2.12
14496.11,2.27
14520.96,2.42
14545.80,1.39
14570.64,-0.29
14595.48,-1.38
14620.33,-1.65
14645.17,-2.02
14670.01,-2.83
14694.85,-3.34
14719.70,-3.18
14744.54,-2.76
14769.38,-2.49
14794.22,-2.50
14819.07,-2.53
14843.91,-2.11
14868.75,-1.18
14893.59,0.01
14918.44,0.70
14943.28,1.39
14968.12,2.67
14992.97,3.36
15017.81,3.36
15042.65,2.91
15067.49,2.02
15092.34,0.76
15117.18,-0.08
15142.02,0.50
15166.86,2.39
15191.71,4.41
15216.55,5.52
15241.39,5.71
15266.23,5.75
15291.08,5.89
15315.92,5.58
15340.76,5.24
15365.60,4.90
15390.45,4.59
15415.29,4.46
15440.13,3.84
15464.97,3.10
15489.82,3.05
15514.66,3.49
15539.50,3.56
15564.34,3.04
15589.19,2.28
15614.03,1.50
15638.87,0.79
15663.71,-0.12
15688.56,-1.10
15713.40,-1.03
15738.24,0.50
15763.08,1.32
15787.93,2.14
15812.77,2.49
15837.61,1.51
15862.46,0.34
15887.30,0.15
15912.14,0.73
15936.98,0.78
15961.83,-0.07
15986.67,-0.84
16011.51,-0.79
16036.35,-0.38
16061.20,-0.48
16086.04,-1.29
16110.88,-2.06
16135.72,-2.18
16160.57,-2.04
16185.41,-1.91
16210.25,-1.55
16235.09,-0.86
16259.94,0.27
16284.78,1.08
16309.62,0.81
16334.46,-0.29
16359.31,-1.64
16384.15,-3.00
16408.99,-3.64
16433.84,-2.90
16458.68,-1.21
16483.52,0.40
16508.36,1.12
16533.21,0.75
16558.05,-0.10
16582.89,-0.35
16607.73,-0.59
16632.58,-0.58
16657.42,-0.61
16682.26,-0.77
16707.10,-0.56
16731.95,0.18
16756.79,0.88
16781.63,0.95
16806.47,0.53
16831.32,0.25
16856.16,0.21
16881.00,-0.15
16905.84,-0.94
16930.69,-1.30
16955.53,-0.55
16980.37,0.63
17005.21,0.97
17030.06,1.32
17054.90,1.73
17079.74,2.31
17104.58,2.81
17129.43,2.83
17154.27,2.36
17179.11,1.88
17203.96,1.90
17228.80,2.20
17253.64,2.34
17278.48,2.47
17303.33,2.53
17328.17,2.18
17353.01,1.66
17377.85,1.57
17402.70,1.86
17427.54,1.88
17452.38,1.91
17477.22,1.41
17502.07,0.80
17526.91,0.57
17551.75,0.56
17576.59,0.37
17601.44,-0.05
17626.28,-0.45
17651.12,-0.60
17675.96,-0.51
17700.81,-0.08
17725.65,1.00
17750.49,2.55
17775.33,3.63
17800.18,3.69
17825.02,3.36
17849.86,3.02
17874.71,2.04
17899.55,1.17
17924.39,0.94
17949.23,1.39
17974.07,1.68
17998.92,1.15
18023.76,0.64
18048.60,1.05
18073.45,1.45
18098.29,0.68
18123.13,-0.45
18147.97,-0.40
18172.82,0.86
18197.66,2.25
18222.50,2.67
18247.34,2.25
18272.19,1.83
18297.03,0.62
18321.87,-0.16
18346.71,-0.41
18371.56,0.00
18396.40,0.00
18421.24,0.00
18446.08,0.00
18470.93,0.00
18495.77,0.00
18520.61,0.00
18545.46,0.00
