Size (bp),Intensity
0.58,2407.24
1.00,2116.51
2.00,1476.76
2.42,834.82
2.84,406.74
3.26,198.60
3.68,120.70
4.10,98.62
4.52,96.32
4.94,97.49
5.36,98.65
5.79,99.16
6.21,96.23
6.63,90.53
7.05,82.34
7.47,71.41
7.89,58.68
8.31,46.55
8.73,37.08
9.15,30.35
9.57,25.05
9.99,20.98
10.41,19.18
10.83,19.26
11.25,18.92
11.67,16.95
12.09,14.37
12.52,12.33
12.94,11.59
13.36,10.86
13.78,9.58
14.20,8.22
14.62,6.95
15.04,6.41
15.46,6.91
15.88,7.83
16.30,8.25
16.72,8.21
17.14,8.30
17.56,8.68
17.98,9.37
18.40,10.45
18.82,11.48
19.24,11.68
19.67,10.70
20.09,9.15
20.51,8.61
20.93,8.06
21.35,7.67
21.77,7.44
22.19,6.91
22.61,6.16
23.03,5.46
23.45,5.24
23.87,5.94
24.29,7.15
24.71,8.24
25.13,9.63
25.55,11.55
25.97,12.88
26.39,12.43
26.82,10.51
27.24,8.67
27.66,7.90
28.08,7.68
28.50,7.47
28.92,6.51
29.34,6.17
29.76,7.67
30.18,9.75
30.60,10.50
31.02,10.19
31.44,10.19
31.86,10.89
32.28,12.04
32.70,13.54
33.12,15.13
33.55,16.41
33.97,17.31
34.39,17.54
34.81,16.81
35.23,15.67
35.65,14.82
36.07,14.54
36.49,14.26
36.91,14.00
37.33,14.45
37.75,15.94
38.17,18.22
38.59,20.42
39.01,21.71
39.43,21.94
39.85,21.32
40.27,20.01
40.70,18.96
41.12,19.58
41.54,21.52
41.96,22.74
42.38,22.38
42.80,21.43
43.22,20.84
43.64,20.68
44.06,20.51
44.48,20.09
44.90,19.70
45.32,19.26
45.74,18.31
46.16,17.02
46.58,15.78
47.00,14.53
47.42,13.66
47.85,13.66
48.27,13.79
48.69,13.04
49.11,11.35
49.53,9.15
49.95,7.18
50.37,6.32
50.79,6.71
51.21,7.64
51.63,7.88
52.05,8.12
52.47,7.67
52.89,6.73
53.31,6.09
53.73,5.80
54.15,5.38
54.58,4.88
55.00,4.67
55.42,4.49
55.84,3.85
56.26,2.91
56.68,1.96
57.10,1.21
57.52,0.79
57.94,0.15
58.36,-0.91
58.78,-1.16
59.20,-0.54
59.62,0.09
60.04,1.65
60.46,2.73
60.88,3.94
61.30,5.36
61.73,6.05
62.15,5.30
62.57,3.53
62.99,2.14
63.41,2.02
63.83,2.69
64.25,3.55
64.67,4.30
65.09,4.32
65.51,3.74
65.93,4.09
66.35,5.96
66.77,6.89
67.19,7.81
67.61,7.95
68.03,6.54
68.45,4.92
68.88,4.16
69.30,4.45
69.72,4.97
70.14,4.86
70.56,4.53
70.98,4.30
71.40,3.27
71.82,1.66
72.24,1.32
72.66,2.34
73.08,3.02
73.50,3.13
73.92,3.15
74.34,2.57
74.76,2.15
75.18,1.73
75.61,1.86
76.03,2.65
76.45,3.01
76.87,2.81
77.29,2.42
77.71,2.33
78.13,2.72
78.55,3.02
78.97,3.19
79.39,3.86
79.81,4.44
80.23,3.88
80.65,2.68
81.07,1.96
81.49,1.88
81.91,1.95
82.33,1.94
82.76,1.93
83.18,1.89
83.60,1.76
84.02,1.89
84.44,2.62
84.86,3.16
85.28,2.61
85.70,1.83
86.12,1.99
86.54,2.61
86.96,2.75
87.38,2.65
87.80,2.90
88.22,3.37
88.64,3.60
89.06,3.34
89.48,2.40
89.91,1.14
90.33,0.89
90.75,0.65
91.17,1.57
91.59,3.17
92.01,4.36
92.43,4.69
92.85,4.27
93.27,3.77
93.69,4.10
94.11,5.07
94.53,5.41
94.95,5.04
95.37,5.19
95.79,5.63
96.21,4.65
96.64,2.38
97.06,0.71
97.48,0.29
97.90,0.35
98.32,0.42
98.74,0.65
99.16,1.06
99.58,1.64
100.00,1.98
101.00,1.62
101.52,0.84
102.04,0.61
102.56,1.58
103.08,3.33
103.61,4.55
104.13,4.35
104.65,3.33
105.17,2.96
105.69,3.94
106.21,5.46
106.73,5.99
107.25,5.12
107.77,4.58
108.29,4.04
108.82,3.82
109.34,3.67
109.86,2.44
110.38,0.86
110.90,0.36
111.42,1.14
111.94,2.35
112.46,2.88
112.98,2.28
113.51,1.08
114.03,0.22
114.55,0.43
115.07,1.51
115.59,2.46
116.11,2.40
116.63,1.23
117.15,0.47
117.67,-0.29
118.19,-1.32
118.72,-1.91
119.24,-2.86
119.76,-4.41
120.28,-5.25
120.80,-4.12
121.32,-1.98
121.84,-0.64
122.36,0.00
122.88,1.10
123.41,2.58
123.93,3.63
124.45,3.82
124.97,2.99
125.49,1.23
126.01,-0.88
126.53,-1.59
127.05,-2.30
127.57,-2.25
128.09,-1.41
128.62,-1.36
129.14,-2.11
129.66,-2.19
130.18,-1.38
130.70,-0.58
131.22,0.02
131.74,0.52
132.26,0.72
132.78,0.54
133.31,-0.17
133.83,-1.14
134.35,-1.38
134.87,-0.66
135.39,0.27
135.91,1.24
136.43,1.71
136.95,2.18
137.47,2.28
137.99,1.25
138.52,-0.16
139.04,-1.19
139.56,-1.56
140.08,-1.70
140.60,-2.36
141.12,-3.15
141.64,-3.01
142.16,-2.17
142.68,-1.56
143.21,-1.14
143.73,-0.57
144.25,-0.06
144.77,0.32
145.29,0.40
145.81,0.06
146.33,-0.29
146.85,-1.47
147.37,-2.25
147.89,-2.28
148.42,-1.47
148.94,0.09
149.46,1.19
149.98,0.77
150.50,-0.09
151.02,0.22
151.54,1.14
152.06,0.83
152.58,-0.95
153.11,-2.48
153.63,-2.35
154.15,-1.01
154.67,0.12
155.19,0.26
155.71,-0.10
156.23,-0.46
156.75,-1.61
157.27,-2.27
157.79,-1.39
158.32,0.56
158.84,1.98
159.36,2.23
159.88,1.89
160.40,1.45
160.92,1.16
161.44,1.39
161.96,2.38
162.48,3.77
163.01,5.04
163.53,6.04
164.05,7.18
164.57,8.87
165.09,9.89
165.61,10.92
166.13,12.89
166.65,14.31
167.17,14.76
167.69,14.76
168.22,15.33
168.74,16.34
169.26,17.03
169.78,17.47
170.30,18.47
170.82,20.28
171.34,22.52
171.86,25.64
172.38,30.83
172.91,38.27
173.43,47.21
173.95,56.24
174.47,59.44
174.99,62.63
175.51,63.40
176.03,58.23
176.55,50.85
177.07,46.12
177.59,45.18
178.12,44.90
178.64,41.95
179.16,36.09
179.68,29.50
180.20,24.14
180.72,20.32
181.24,17.43
181.76,15.50
182.28,14.72
182.81,14.04
183.33,12.41
183.85,10.49
184.37,9.85
184.89,9.21
185.41,8.42
185.93,7.84
186.45,7.81
186.97,8.57
187.49,9.81
188.02,11.01
188.54,12.17
189.06,13.41
189.58,14.25
190.10,14.41
190.62,14.77
191.14,16.50
191.66,19.61
192.18,22.96
192.71,25.49
193.23,27.12
193.75,27.74
194.27,28.37
194.79,29.71
195.31,31.35
195.83,33.37
196.35,35.54
196.87,37.08
197.39,37.29
197.92,36.37
198.44,34.67
198.96,32.42
199.48,30.45
200.00,29.66
201.00,29.97
201.59,31.58
202.17,35.54
202.76,41.10
203.34,45.15
203.93,46.27
204.51,46.54
205.10,46.81
205.69,48.96
206.27,51.64
206.86,52.76
207.44,52.25
208.03,51.03
208.62,49.44
209.20,47.20
209.79,44.22
210.37,40.89
210.96,37.55
211.54,34.44
212.13,32.49
212.72,32.41
213.30,33.26
213.89,33.51
214.47,33.21
215.06,33.13
215.64,33.05
216.23,32.67
216.82,31.82
217.40,31.10
217.99,30.46
218.57,29.40
219.16,28.22
219.75,27.70
220.33,27.84
220.92,27.69
221.50,26.70
222.09,25.14
222.67,23.41
223.26,22.18
223.85,21.91
224.43,22.19
225.02,22.73
225.60,23.28
226.19,23.84
226.78,25.24
227.36,26.15
227.95,26.65
228.53,27.39
229.12,28.29
229.70,28.70
230.29,28.22
230.88,27.48
231.46,27.77
232.05,29.31
232.63,31.16
233.22,32.64
233.80,33.85
234.39,35.13
234.98,37.13
235.56,40.16
236.15,43.65
236.73,45.27
237.32,46.90
237.91,49.52
238.49,51.12
239.08,51.60
239.66,51.67
240.25,52.76
240.83,55.92
241.42,59.78
242.01,61.92
242.59,62.66
243.18,64.58
243.76,68.89
244.35,75.13
244.93,82.72
245.52,90.41
246.11,96.47
246.69,100.77
247.28,102.40
247.86,104.02
248.45,105.88
249.04,106.38
249.62,107.24
250.21,109.68
250.79,113.64
251.38,120.40
251.96,133.11
252.55,153.53
253.14,180.00
253.72,207.98
254.31,232.20
254.89,249.49
255.48,259.69
256.07,264.03
256.65,264.18
257.24,262.27
257.82,260.68
258.41,261.27
258.99,261.87
259.58,268.04
260.17,281.07
260.75,303.18
261.34,336.20
261.92,381.51
262.51,442.62
263.09,523.76
263.68,623.94
264.27,736.05
264.85,851.70
265.44,964.95
266.02,1074.39
266.61,1182.74
267.20,1292.27
267.78,1401.32
268.37,1507.37
268.95,1561.39
269.54,1615.41
270.12,1745.32
270.71,1931.04
271.30,2208.34
271.88,2596.10
272.47,3082.64
273.05,3626.51
273.64,4175.01
274.22,4693.36
274.81,5187.17
275.40,5701.42
275.98,6304.16
276.57,7086.38
277.15,8183.86
277.74,9777.00
278.33,12033.60
278.91,15050.90
279.50,16987.69
280.08,18924.49
280.67,23945.74
281.25,30562.27
281.84,38652.77
282.43,46639.35
283.01,51894.87
283.60,52531.48
284.18,48556.14
284.77,41301.14
285.36,32432.37
285.94,23592.22
286.53,16127.23
287.11,10640.33
287.70,6966.50
288.28,4614.92
288.87,3138.44
289.46,2233.58
290.04,1706.76
290.63,1565.56
291.21,1424.37
291.80,1288.05
292.38,1228.65
292.97,1202.56
293.56,1186.28
294.14,1169.17
294.73,1144.79
295.31,1105.29
295.90,1043.11
296.49,956.44
297.07,852.06
297.66,743.00
298.24,642.06
298.83,556.21
299.41,486.21
300.00,429.88
301.00,384.57
301.70,366.36
302.39,348.16
303.09,319.08
303.79,295.34
304.49,274.41
305.18,254.67
305.88,235.89
306.58,218.96
307.27,204.81
307.97,192.64
308.67,180.45
309.37,167.22
310.06,153.02
310.76,138.30
311.46,124.17
312.15,111.82
312.85,101.89
313.55,95.66
314.25,94.11
314.94,94.90
315.64,95.69
316.34,97.84
317.04,99.41
317.73,99.43
318.43,96.07
319.13,88.24
319.82,76.78
320.52,64.15
321.22,52.72
321.92,43.39
322.61,36.16
323.31,30.20
324.01,24.59
324.70,19.89
325.40,16.97
326.10,14.80
326.80,12.25
327.49,11.34
328.19,10.43
328.89,10.32
329.58,10.63
330.28,10.05
330.98,9.15
331.68,8.99
332.37,9.57
333.07,9.79
333.77,9.26
334.46,9.42
335.16,11.80
335.86,16.16
336.56,20.55
337.25,22.38
337.95,20.13
338.65,14.71
339.35,8.80
340.04,6.50
340.74,4.21
341.44,0.49
342.13,-2.79
342.83,-4.74
343.53,-4.94
344.23,-3.96
344.92,-2.24
345.62,-0.24
346.32,1.34
347.01,2.04
347.71,1.98
348.41,1.62
349.11,1.27
349.80,1.13
350.50,1.78
351.20,3.22
351.89,4.05
352.59,3.46
353.29,3.00
353.99,2.55
354.68,2.26
355.38,2.18
356.08,2.10
356.77,2.17
357.47,1.92
358.17,0.93
358.87,-0.00
359.56,0.25
360.26,1.37
360.96,1.86
361.65,0.75
362.35,-1.58
363.05,-3.78
363.75,-4.48
364.44,-3.72
365.14,-2.89
365.84,-2.82
366.54,-2.76
367.23,-2.81
367.93,-2.48
368.63,-1.79
369.32,-0.82
370.02,0.56
370.72,1.95
371.42,2.12
372.11,0.53
372.81,-1.71
373.51,-3.17
374.20,-3.44
374.90,-2.80
375.60,-1.86
376.30,-1.25
376.99,-1.36
377.69,-2.04
378.39,-2.32
379.08,-1.86
379.78,-1.40
380.48,0.07
381.18,1.07
381.87,1.34
382.57,0.76
383.27,-0.30
383.96,-0.94
384.66,-1.24
385.36,-1.78
386.06,-1.94
386.75,-0.92
387.45,0.50
388.15,1.11
388.85,0.63
389.54,-0.53
390.24,-1.48
390.94,-1.61
391.63,-1.54
392.33,-1.46
393.03,-1.48
393.73,-0.92
394.42,0.19
395.12,0.60
395.82,0.02
396.51,-0.69
397.21,-1.10
397.91,-1.30
398.61,-1.63
399.30,-2.19
400.00,-2.50
401.00,-2.19
401.72,-1.23
402.45,0.28
403.17,1.55
403.89,1.53
404.61,0.96
405.34,0.39
406.06,-1.07
406.78,-2.32
407.50,-2.79
408.23,-2.26
408.95,-1.32
409.67,-0.48
410.39,0.10
411.12,-0.29
411.84,-1.94
412.56,-3.64
413.28,-4.14
414.01,-3.56
414.73,-2.94
415.45,-3.09
416.18,-3.72
416.90,-3.72
417.62,-2.61
418.34,-1.82
419.07,-1.04
419.79,-0.14
420.51,-0.03
421.23,0.49
421.96,1.77
422.68,2.37
423.40,1.68
424.12,1.03
424.85,1.06
425.57,0.89
426.29,-0.00
427.01,-0.75
427.74,-0.19
428.46,1.42
429.18,2.38
429.91,2.14
430.63,2.39
431.35,3.26
432.07,4.13
432.80,6.10
433.52,7.19
434.24,7.83
434.96,8.44
435.69,8.63
436.41,7.93
437.13,6.48
437.85,5.32
438.58,5.70
439.30,7.72
440.02,10.19
440.74,11.39
441.47,10.41
442.19,8.22
442.91,6.45
443.64,5.71
444.36,5.82
445.08,5.98
445.80,6.14
446.53,5.99
447.25,5.65
447.97,5.91
448.69,6.69
449.42,7.29
450.14,7.73
450.86,8.40
451.58,8.89
452.31,8.93
453.03,9.25
453.75,9.97
454.47,10.30
455.20,9.87
455.92,8.97
456.64,7.95
457.36,7.27
458.09,7.21
458.81,7.14
459.53,7.50
460.26,8.13
460.98,8.61
461.70,8.46
462.42,7.65
463.15,7.12
463.87,7.51
464.59,7.73
465.31,6.62
466.04,5.01
466.76,4.59
467.48,5.87
468.20,7.67
468.93,8.09
469.65,6.59
470.37,4.89
471.09,4.85
471.82,5.43
472.54,6.02
473.26,6.60
473.99,5.90
474.71,4.82
475.43,4.35
476.15,4.52
476.88,5.13
477.60,6.09
478.32,6.62
479.04,6.12
479.77,5.17
480.49,4.36
481.21,3.72
481.93,3.33
482.66,3.09
483.38,2.81
484.10,2.92
484.82,3.39
485.55,3.86
486.27,4.86
486.99,5.00
487.72,4.65
488.44,4.44
489.16,4.30
489.88,3.98
490.61,3.59
491.33,3.40
492.05,3.50
492.77,3.93
493.50,4.76
494.22,5.45
494.94,5.42
495.66,5.12
496.39,5.14
497.11,4.86
497.83,4.28
498.55,3.71
499.28,2.55
500.00,2.39
501.00,2.88
502.01,2.99
503.02,2.30
504.03,1.46
505.04,1.38
506.05,1.88
507.06,2.06
508.07,1.84
509.08,1.82
510.09,2.00
511.10,1.72
512.11,1.14
513.12,1.61
514.13,3.28
515.14,4.30
516.15,4.01
517.16,3.72
518.17,2.60
519.18,2.05
520.19,2.36
521.20,3.01
522.21,3.10
523.22,2.54
524.23,2.15
525.24,2.53
526.26,3.18
527.27,3.31
528.28,2.84
529.29,2.15
530.30,1.64
531.31,1.72
532.32,1.89
533.33,0.97
534.34,0.27
535.35,-0.42
536.36,-0.28
537.37,1.10
538.38,1.36
539.39,-0.10
540.40,-1.92
541.41,-3.01
542.42,-2.99
543.43,-1.76
544.44,0.09
545.45,1.40
546.46,1.45
547.47,0.62
548.48,-0.19
549.49,-0.75
550.50,-0.98
551.51,-0.64
552.52,-0.12
553.53,-0.05
554.54,0.03
555.55,0.07
556.56,0.44
557.57,1.02
558.58,1.10
559.59,0.49
560.60,-0.23
561.61,-0.84
562.62,-1.37
563.63,-1.27
564.64,-0.38
565.65,0.47
566.66,0.84
567.67,1.19
568.68,1.55
569.69,1.53
570.70,0.95
571.71,0.38
572.72,-0.19
573.73,-1.34
574.74,-1.56
575.76,-0.61
576.77,0.83
577.78,1.83
578.79,2.08
579.80,2.18
580.81,2.16
581.82,1.17
582.83,-0.22
583.84,-0.00
584.85,2.00
585.86,3.78
586.87,4.14
587.88,3.98
588.89,4.44
589.90,4.78
590.91,5.13
591.92,5.14
592.93,4.42
593.94,3.50
594.95,3.04
595.96,3.54
596.97,4.85
597.98,6.35
598.99,7.60
600.00,8.21
601.00,7.93
602.18,7.48
603.36,7.89
604.54,8.93
605.71,9.53
606.89,9.09
608.07,8.28
609.25,8.38
610.43,8.88
611.61,9.38
612.79,10.00
613.96,9.96
615.14,10.24
616.32,11.46
617.50,13.11
618.68,13.94
619.86,13.09
621.04,11.63
622.21,11.68
623.39,13.57
624.57,15.82
625.75,17.22
626.93,17.50
628.11,16.86
629.29,15.97
630.46,16.03
631.64,16.72
632.82,17.41
634.00,18.77
635.18,19.03
636.36,18.77
637.54,18.74
638.71,19.19
639.89,20.47
641.07,22.62
642.25,25.01
643.43,26.90
644.61,27.88
645.79,28.14
646.96,28.07
648.14,28.26
649.32,29.18
650.50,30.28
651.68,30.80
652.86,31.66
654.04,32.88
655.21,34.11
656.39,37.25
657.57,39.28
658.75,40.50
659.93,42.58
661.11,45.52
662.29,47.80
663.46,48.90
664.64,49.59
665.82,50.70
667.00,52.46
668.18,54.43
669.36,56.21
670.54,58.11
671.71,60.17
672.89,61.97
674.07,63.64
675.25,64.56
676.43,65.48
677.61,67.19
678.79,68.69
679.96,70.14
681.14,71.39
682.32,72.69
683.50,74.22
684.68,75.16
685.86,74.91
687.04,74.24
688.21,74.45
689.39,75.93
690.57,77.56
691.75,78.00
692.93,77.36
694.11,76.50
695.29,76.22
696.46,76.66
697.64,77.11
698.82,78.53
700.00,79.05
701.00,78.28
702.98,76.63
704.96,74.29
706.94,71.71
708.92,69.54
710.90,68.27
712.88,68.20
714.86,68.52
716.84,68.07
718.82,66.95
720.80,65.48
722.78,63.25
724.76,60.58
726.74,58.22
728.72,55.67
730.70,53.94
732.68,52.22
734.66,48.59
736.64,46.25
738.62,45.53
740.60,45.16
742.58,43.77
744.56,41.49
746.54,39.55
748.52,38.79
750.50,38.48
752.48,37.21
754.46,35.23
756.44,34.18
758.42,34.26
760.40,33.86
762.38,32.22
764.36,30.17
766.34,29.42
768.32,28.67
770.30,28.23
772.28,28.66
774.26,29.05
776.24,29.38
778.22,30.39
780.20,31.60
782.18,31.90
784.16,31.63
786.14,31.68
788.12,31.81
790.10,31.59
792.08,31.56
794.06,32.26
796.04,33.37
798.02,34.17
800.00,34.00
801.00,32.56
803.36,31.60
805.71,30.64
808.07,29.50
810.43,29.03
812.79,28.41
815.14,28.19
817.50,29.10
819.86,29.83
822.21,28.66
824.57,26.04
826.93,23.90
829.29,22.99
831.64,22.35
834.00,21.31
836.36,20.45
838.71,20.12
841.07,19.45
843.43,17.65
845.79,16.39
848.14,15.12
850.50,13.00
852.86,12.38
855.21,13.17
857.57,14.00
859.93,13.85
862.29,12.82
864.64,11.41
867.00,10.16
869.36,9.27
871.71,8.37
874.07,7.32
876.43,6.67
878.79,6.64
881.14,6.65
883.50,5.97
885.86,4.39
888.21,3.42
890.57,2.45
892.93,0.80
895.29,-0.48
897.64,-1.20
900.00,-0.58
901.00,1.25
904.67,2.80
908.33,3.22
912.00,2.93
915.67,2.49
919.33,2.02
923.00,1.29
926.67,0.32
930.33,-0.60
934.00,-1.27
937.67,-1.44
941.33,-1.22
945.00,-1.06
948.67,-0.97
952.33,-0.88
956.00,-0.34
959.67,0.22
963.33,0.38
967.00,0.21
970.67,-0.20
974.33,-1.01
978.00,-2.07
981.67,-2.82
985.33,-2.76
989.00,-1.84
992.67,-0.71
996.33,-0.44
1000.00,-1.54
1001.00,-3.07
1006.10,-3.69
1011.21,-3.52
1016.31,-3.46
1021.41,-3.41
1026.51,-3.16
1031.62,-2.30
1036.72,-1.58
1041.82,-1.80
1046.92,-2.22
1052.03,-1.86
1057.13,-1.10
1062.23,-0.59
1067.33,-0.06
1072.44,0.27
1077.54,-0.71
1082.64,-2.98
1087.74,-4.91
1092.85,-5.52
1097.95,-5.39
1103.05,-5.35
1108.15,-5.08
1113.26,-4.45
1118.36,-3.81
1123.46,-1.89
1128.56,-0.48
1133.67,0.14
1138.77,0.69
1143.87,1.58
1148.97,2.43
1154.08,2.40
1159.18,1.22
1164.28,-0.02
1169.38,0.23
1174.49,2.12
1179.59,3.77
1184.69,3.54
1189.79,2.09
1194.90,1.18
1200.00,1.34
1201.00,1.49
1210.06,1.64
1219.12,1.30
1228.18,0.77
1237.24,0.69
1246.30,0.74
1255.36,0.50
1264.42,-0.01
1273.48,-0.92
1282.55,-1.85
1291.61,-1.74
1300.67,-0.43
1309.73,0.43
1318.79,-0.34
1327.85,-1.47
1336.91,-1.71
1345.97,-1.80
1355.03,-2.47
1364.09,-3.13
1373.15,-3.18
1382.21,-3.24
1391.27,-2.97
1400.33,-2.92
1409.39,-3.31
1418.45,-3.30
1427.52,-2.18
1436.58,-0.75
1445.64,-0.25
1454.70,-0.70
1463.76,-0.48
1472.82,1.60
1481.88,4.09
1490.94,4.77
1500.00,3.96
1501.00,3.29
1510.24,2.95
1519.48,2.37
1528.72,2.09
1537.96,1.81
1547.20,1.48
1556.44,1.08
1565.69,0.83
1574.93,1.30
1584.17,2.13
1593.41,2.46
1602.65,2.19
1611.89,1.79
1621.13,1.19
1630.37,0.12
1639.61,-0.81
1648.85,-0.52
1658.09,0.52
1667.33,1.12
1676.57,1.46
1685.81,2.04
1695.06,2.00
1704.30,1.97
1713.54,0.90
1722.78,-0.02
1732.02,-0.23
1741.26,-0.09
1750.50,0.08
1759.74,0.00
1768.98,-0.26
1778.22,-0.20
1787.46,0.24
1796.70,0.43
1805.94,0.32
1815.19,0.59
1824.43,1.31
1833.67,2.12
1842.91,2.96
1852.15,3.57
1861.39,3.59
1870.63,3.36
1879.87,3.14
1889.11,2.26
1898.35,0.80
1907.59,-0.80
1916.83,-1.55
1926.07,-0.90
1935.31,0.85
1944.56,2.69
1953.80,3.72
1963.04,4.02
1972.28,4.10
1981.52,4.13
1990.76,4.13
2000.00,3.85
2001.00,3.01
2018.22,2.35
2035.45,2.81
2052.67,3.39
2069.90,3.97
2087.12,4.76
2104.34,4.34
2121.57,2.75
2138.79,1.38
2156.02,1.22
2173.24,1.85
2190.47,2.72
2207.69,3.69
2224.91,4.29
2242.14,3.97
2259.36,2.98
2276.59,2.24
2293.81,2.54
2311.03,3.52
2328.26,4.03
2345.48,3.53
2362.71,2.67
2379.93,2.42
2397.16,2.17
2414.38,2.28
2431.60,2.94
2448.83,3.62
2466.05,3.72
2483.28,3.19
2500.50,2.50
2517.72,2.21
2534.95,2.69
2552.17,3.65
2569.40,4.08
2586.62,3.82
2603.84,3.55
2621.07,3.10
2638.29,2.02
2655.52,1.17
2672.74,1.21
2689.97,1.46
2707.19,1.70
2724.41,2.09
2741.64,2.30
2758.86,2.70
2776.09,3.69
2793.31,4.47
2810.53,4.00
2827.76,3.02
2844.98,2.94
2862.21,3.36
2879.43,3.26
2896.66,3.15
2913.88,3.76
2931.10,4.54
2948.33,4.68
2965.55,4.09
2982.78,3.39
3000.00,3.24
3001.00,3.09
3025.99,3.11
3050.98,3.40
3075.98,3.98
3100.97,4.34
3125.96,4.14
3150.95,3.88
3175.94,4.28
3200.93,5.19
3225.93,5.69
3250.92,5.58
3275.91,5.54
3300.90,5.74
3325.89,5.76
3350.88,5.87
3375.87,6.57
3400.87,6.92
3425.86,5.90
3450.85,5.15
3475.84,4.40
3500.83,3.67
3525.82,3.83
3550.82,4.59
3575.81,5.75
3600.80,6.53
3625.79,5.80
3650.78,3.89
3675.77,3.14
3700.77,4.79
3725.76,6.96
3750.75,7.41
3775.74,6.29
3800.73,5.18
3825.73,5.02
3850.72,5.54
3875.71,5.96
3900.70,5.75
3925.69,5.53
3950.68,3.89
3975.68,2.09
4000.67,1.67
4025.66,2.51
4050.65,3.50
4075.64,4.06
4100.63,4.10
4125.62,3.83
4150.62,3.97
4175.61,4.86
4200.60,5.47
4225.59,4.66
4250.58,3.57
4275.58,4.02
4300.57,5.26
4325.56,5.29
4350.55,3.92
4375.54,3.15
4400.53,2.39
4425.52,1.72
4450.52,1.81
4475.51,1.70
4500.50,1.11
4525.49,1.06
4550.48,2.14
4575.48,3.22
4600.47,2.80
4625.46,1.10
4650.45,0.11
4675.44,1.05
4700.43,2.62
4725.42,3.16
4750.42,3.12
4775.41,3.67
4800.40,4.76
4825.39,5.20
4850.38,5.64
4875.37,5.79
4900.37,5.09
4925.36,4.04
4950.35,3.55
4975.34,3.69
5000.33,3.92
5025.33,4.05
5050.32,3.88
5075.31,3.16
5100.30,2.44
5125.29,2.25
5150.28,2.02
5175.27,1.66
5200.27,2.32
5225.26,3.96
5250.25,4.92
5275.24,4.68
5300.23,4.45
5325.23,3.60
5350.22,3.29
5375.21,3.31
5400.20,3.61
5425.19,4.58
5450.18,5.87
5475.17,6.66
5500.17,6.72
5525.16,6.49
5550.15,6.27
5575.14,6.43
5600.13,7.79
5625.12,11.24
5650.12,19.15
5675.11,38.24
5700.10,79.49
5725.09,156.34
5750.08,220.31
5775.08,284.29
5800.07,478.03
5825.06,742.57
5850.05,1064.86
5875.04,1414.00
5900.03,1747.44
5925.02,2017.19
5950.02,2179.94
5975.01,2209.71
6000.00,2104.53
6024.79,1886.39
6049.64,1595.44
6074.48,1277.61
6099.32,971.80
6124.16,704.09
6149.01,487.85
6173.85,325.84
6198.69,269.15
6223.53,212.46
6248.38,137.12
6273.22,89.07
6298.06,60.32
6322.90,44.61
6347.75,36.73
6372.59,32.98
6397.43,30.78
6422.27,28.58
6447.12,26.03
6471.96,23.72
6496.80,22.25
6521.65,21.77
6546.49,22.21
6571.33,22.85
6596.17,22.65
6621.02,21.88
6645.86,21.56
6670.70,21.65
6695.54,21.74
6720.39,22.20
6745.23,22.86
6770.07,22.98
6794.91,21.47
6819.76,18.39
6844.60,15.25
6869.44,13.11
6894.28,11.49
6919.13,9.96
6943.97,9.14
6968.81,9.04
6993.65,8.43
7018.50,6.72
7043.34,4.51
7068.18,2.55
7093.02,1.57
7117.87,1.69
7142.71,1.81
7167.55,2.42
7192.39,2.67
7217.24,3.03
7242.08,3.40
7266.92,2.65
7291.77,1.09
7316.61,0.20
7341.45,0.05
7366.29,-0.11
7391.14,0.00
7415.98,0.94
7440.82,2.38
7465.66,3.16
7490.51,2.40
7515.35,1.01
7540.19,0.90
7565.03,1.38
7589.88,1.87
7614.72,1.84
7639.56,0.53
7664.40,-0.30
7689.25,-0.21
7714.09,-0.35
7738.93,-0.91
7763.77,-1.27
7788.62,-1.34
7813.46,-1.01
7838.30,-0.09
7863.14,0.96
7887.99,1.63
7912.83,1.90
7937.67,1.88
7962.51,1.57
7987.36,0.76
8012.20,-0.46
8037.04,-1.11
8061.89,-1.76
8086.73,-3.18
8111.57,-4.36
8136.41,-4.14
8161.26,-2.49
8186.10,-0.91
8210.94,-0.03
8235.78,0.73
8260.63,1.22
8285.47,0.85
8310.31,0.17
8335.15,-0.06
8360.00,-0.09
8384.84,-0.34
8409.68,-0.99
8434.52,-2.12
8459.37,-3.16
8484.21,-3.12
8509.05,-3.07
8533.89,-1.62
8558.74,0.03
8583.58,0.67
8608.42,0.03
8633.26,-1.30
8658.11,-1.99
8682.95,-1.45
8707.79,-0.84
8732.63,-1.06
8757.48,-1.29
8782.32,-0.70
8807.16,0.05
8832.00,-0.06
8856.85,-1.12
8881.69,-2.54
8906.53,-3.38
8931.37,-2.98
8956.22,-2.34
8981.06,-1.71
9005.90,-0.66
9030.75,-0.44
9055.59,-0.75
9080.43,-1.24
9105.27,-1.86
9130.12,-2.08
9154.96,-1.47
9179.80,-0.94
9204.64,-1.26
9229.49,-1.97
9254.33,-2.61
9279.17,-3.20
9304.01,-3.48
9328.86,-3.34
9353.70,-3.27
9378.54,-3.57
9403.38,-3.65
9428.23,-3.73
9453.07,-2.98
9477.91,-1.18
9502.75,0.37
9527.60,-0.10
9552.44,-2.28
9577.28,-3.89
9602.12,-3.20
9626.97,-0.56
9651.81,1.92
9676.65,2.58
9701.50,2.06
9726.34,1.47
9751.18,0.46
9776.02,-0.84
9800.87,-1.04
9825.71,0.04
9850.55,0.52
9875.39,0.99
9900.24,0.99
9925.08,0.48
9949.92,-0.10
9974.76,-0.83
9999.61,-1.68
10024.45,-2.21
10049.29,-2.17
10074.13,-2.09
10098.98,-2.84
10123.82,-4.05
10148.66,-4.29
10173.50,-3.51
10198.35,-2.86
10223.19,-2.59
10248.03,-2.37
10272.87,-2.43
10297.72,-2.81
10322.56,-2.80
10347.40,-2.79
10372.25,-1.96
10397.09,-0.72
10421.93,0.23
10446.77,0.48
10471.62,0.18
10496.46,-0.02
10521.30,0.08
10546.14,-0.03
10570.99,-0.56
10595.83,-1.14
10620.67,-1.31
10645.51,-1.04
10670.36,-0.86
10695.20,-0.89
10720.04,-0.53
10744.88,0.24
10769.73,0.37
10794.57,0.51
10819.41,-0.12
10844.25,-1.15
10869.10,-2.13
10893.94,-2.90
10918.78,-3.30
10943.62,-3.16
10968.47,-2.41
10993.31,-1.47
11018.15,-0.97
11043.00,-1.16
11067.84,-2.03
11092.68,-3.31
11117.52,-4.32
11142.37,-4.78
11167.21,-4.99
11192.05,-5.13
11216.89,-5.04
11241.74,-4.88
11266.58,-4.71
11291.42,-4.21
11316.26,-3.40
11341.11,-2.18
11365.95,-0.91
11390.79,-0.22
11415.63,-0.42
11440.48,-1.44
11465.32,-2.91
11490.16,-4.25
11515.00,-5.03
11539.85,-4.92
11564.69,-3.83
11589.53,-2.64
11614.37,-2.51
11639.22,-3.31
11664.06,-4.06
11688.90,-4.20
11713.74,-4.35
11738.59,-4.38
11763.43,-4.33
11788.27,-4.33
11813.12,-4.47
11837.96,-4.55
11862.80,-4.16
11887.64,-3.30
11912.49,-2.44
11937.33,-1.91
11962.17,-1.80
11987.01,-2.09
12011.86,-2.26
12036.70,-1.72
12061.54,-0.98
12086.38,-1.00
12111.23,-1.59
12136.07,-1.89
12160.91,-2.20
12185.75,-2.95
12210.60,-3.87
12235.44,-4.26
12260.28,-3.61
12285.12,-2.55
12309.97,-1.82
12334.81,-1.24
12359.65,-0.80
12384.49,-0.95
12409.34,-1.41
12434.18,-1.67
12459.02,-1.86
12483.86,-2.03
12508.71,-2.18
12533.55,-2.42
12558.39,-2.64
12583.24,-2.68
12608.08,-2.59
12632.92,-2.49
12657.76,-2.07
12682.61,-1.52
12707.45,-1.24
12732.29,-1.63
12757.13,-2.22
12781.98,-1.97
12806.82,-0.94
12831.66,-0.39
12856.50,-0.84
12881.35,-1.28
12906.19,-0.86
12931.03,-0.40
12955.87,-1.11
12980.72,-2.45
13005.56,-3.23
13030.40,-3.64
13055.24,-3.85
13080.09,-4.07
13104.93,-3.81
13129.77,-2.96
13154.61,-3.01
13179.46,-4.07
13204.30,-5.02
13229.14,-5.77
13253.98,-6.61
13278.83,-7.00
13303.67,-6.75
13328.51,-6.42
13353.35,-5.83
13378.20,-4.44
13403.04,-3.14
13427.88,-3.12
13452.73,-3.62
13477.57,-3.07
13502.41,-1.93
13527.25,-2.02
13552.10,-2.10
13576.94,-3.54
13601.78,-4.05
13626.62,-2.98
13651.47,-1.96
13676.31,-1.94
13701.15,-2.10
13725.99,-1.91
13750.84,-2.22
13775.68,-3.77
13800.52,-5.89
13825.36,-7.33
13850.21,-7.47
13875.05,-6.53
13899.89,-5.06
13924.73,-3.39
13949.58,-1.76
13974.42,-1.29
13999.26,-0.82
14024.10,-1.09
14048.95,-2.35
14073.79,-3.77
14098.63,-4.33
14123.47,-3.94
14148.32,-3.63
14173.16,-4.19
14198.00,-5.11
14222.85,-5.02
14247.69,-3.50
14272.53,-1.83
14297.37,-1.08
14322.22,-0.90
14347.06,-0.81
14371.90,-1.09
14396.74,-1.75
14421.59,-1.78
14446.43,-1.13
14471.27,-0.49
14496.11,1.15
14520.96,1.32
14545.80,-0.43
14570.64,-2.54
14595.48,-3.41
14620.33,-3.05
14645.17,-2.50
14670.01,-2.31
14694.85,-2.02
14719.70,-1.20
14744.54,-0.30
14769.38,0.16
14794.22,0.17
14819.07,-0.20
14843.91,-1.04
14868.75,-1.78
14893.59,-1.86
14918.44,-1.95
14943.28,-2.13
14968.12,-2.21
14992.97,-1.01
15017.81,1.12
15042.65,2.18
15067.49,1.34
15092.34,-0.35
15117.18,-1.86
15142.02,-3.30
15166.86,-4.52
15191.71,-4.56
15216.55,-3.31
15241.39,-1.90
15266.23,-1.14
15291.08,-0.92
15315.92,-1.00
15340.76,-1.02
15365.60,-1.04
15390.45,-0.81
15415.29,-0.92
15440.13,-1.99
15464.97,-3.07
15489.82,-3.16
15514.66,-3.32
15539.50,-4.61
15564.34,-5.74
15589.19,-4.53
15614.03,-1.17
15638.87,1.42
15663.71,0.87
15688.56,-1.80
15713.40,-3.90
15738.24,-4.31
15763.08,-3.67
15787.93,-2.95
15812.77,-2.63
15837.61,-2.31
15862.46,-1.31
15887.30,-0.29
15912.14,0.04
15936.98,-0.02
15961.83,-0.07
15986.67,-0.36
16011.51,-1.11
16036.35,-2.30
16061.20,-3.46
16086.04,-3.53
16110.88,-2.55
16135.72,-1.91
16160.57,-1.89
16185.41,-1.48
16210.25,-0.92
16235.09,-1.18
16259.94,-1.50
16284.78,-1.82
16309.62,-1.95
16334.46,-1.85
16359.31,-1.93
16384.15,-1.80
16408.99,-1.52
16433.84,-1.43
16458.68,-0.96
16483.52,-0.02
16508.36,-0.08
16533.21,-1.77
16558.05,-3.36
16582.89,-3.23
16607.73,-2.09
16632.58,-1.42
16657.42,-1.53
16682.26,-2.31
16707.10,-3.62
16731.95,-4.00
16756.79,-4.37
16781.63,-3.42
16806.47,-1.34
16831.32,0.05
16856.16,-0.37
16881.00,-1.85
16905.84,-2.51
16930.69,-1.57
16955.53,-0.33
16980.37,-0.36
17005.21,-1.45
17030.06,-2.28
17054.90,-2.58
17079.74,-3.05
17104.58,-3.45
17129.43,-2.92
17154.27,-1.84
17179.11,-1.62
17203.96,-1.40
17228.80,-1.87
17253.64,-2.87
17278.48,-3.84
17303.33,-3.93
17328.17,-3.10
17353.01,-2.13
17377.85,-1.41
17402.70,-1.08
17427.54,-1.08
17452.38,-0.91
17477.22,-0.56
17502.07,-0.67
17526.91,-1.62
17551.75,-3.20
17576.59,-4.34
17601.44,-3.92
17626.28,-3.13
17651.12,-2.34
17675.96,-1.21
17700.81,-1.39
17725.65,-2.13
17750.49,-2.23
17775.33,-1.46
17800.18,-0.91
17825.02,-1.52
17849.86,-2.93
17874.71,-3.89
17899.55,-3.64
17924.39,-2.58
17949.23,-1.50
17974.07,-0.58
17998.92,0.34
18023.76,0.88
18048.60,0.14
18073.45,-1.84
18098.29,-2.73
18123.13,-3.62
18147.97,-4.03
18172.82,-3.32
18197.66,-2.38
18222.50,-1.91
18247.34,-1.94
18272.19,-1.77
18297.03,-1.29
18321.87,-1.19
18346.71,-1.25
18371.56,-0.57
18396.40,0.50
18421.24,0.73
18446.08,0.00
18470.93,2.73
18495.77,2.11
18520.61,1.50
18545.46,1.36
