Size (bp),Intensity
0.58,1905.73
1.00,1654.06
2.00,1144.89
2.42,651.19
2.84,328.49
3.26,171.53
3.68,109.89
4.10,88.66
4.52,85.55
4.94,82.44
5.36,80.72
5.79,78.74
6.21,75.74
6.63,72.14
7.05,66.88
7.47,59.21
7.89,50.60
8.31,42.33
8.73,34.21
9.15,26.93
9.57,21.94
9.99,18.99
10.41,17.24
10.83,16.79
11.25,16.93
11.67,17.07
12.09,17.00
12.52,16.43
12.94,15.19
13.36,12.88
13.78,10.01
14.20,7.82
14.62,6.94
15.04,6.94
15.46,6.97
15.88,6.38
16.30,5.07
16.72,3.93
17.14,4.02
17.56,4.93
17.98,5.54
18.40,5.83
18.82,6.13
19.24,7.30
19.67,8.30
20.09,8.52
20.51,8.49
20.93,8.52
21.35,8.10
21.77,6.76
22.19,4.90
22.61,3.68
23.03,3.91
23.45,5.32
23.87,6.93
24.29,7.73
24.71,7.23
25.13,6.63
25.55,6.03
25.97,5.26
26.39,5.37
26.82,5.98
27.24,6.68
27.66,7.03
28.08,6.39
28.50,4.98
28.92,4.21
29.34,4.95
29.76,6.37
30.18,7.51
30.60,8.36
31.02,8.82
31.44,8.73
31.86,8.68
32.28,8.64
32.70,9.14
33.12,10.12
33.55,11.28
33.97,12.48
34.39,13.67
34.81,14.39
35.23,13.79
35.65,11.89
36.07,10.19
36.49,10.11
36.91,11.26
37.33,12.51
37.75,13.73
38.17,14.98
38.59,15.29
39.01,15.59
39.43,15.33
39.85,14.86
40.27,14.73
40.70,15.02
41.12,15.78
41.54,16.89
41.96,17.64
42.38,17.66
42.80,17.05
43.22,15.64
43.64,13.48
44.06,11.34
44.48,10.20
44.90,10.67
45.32,11.49
45.74,12.31
46.16,13.81
46.58,14.42
47.00,14.35
47.42,13.38
47.85,10.94
48.27,8.00
48.69,6.72
49.11,7.44
49.53,8.16
49.95,7.64
50.37,6.88
50.79,6.72
51.21,6.55
51.63,5.93
52.05,5.33
52.47,5.17
52.89,5.00
53.31,4.68
53.73,4.08
54.15,3.32
54.58,3.24
55.00,4.18
55.42,4.58
55.84,3.50
56.26,2.49
56.68,2.74
57.10,3.27
57.52,2.97
57.94,2.10
58.36,1.76
58.78,2.66
59.20,3.31
59.62,3.96
60.04,4.26
60.46,3.77
60.88,3.43
61.30,2.90
61.73,1.88
62.15,1.55
62.57,2.65
62.99,3.93
63.41,4.07
63.83,3.43
64.25,2.82
64.67,2.24
65.09,1.79
65.51,2.12
65.93,2.85
66.35,3.59
66.77,5.70
67.19,7.18
67.61,7.18
68.03,6.24
68.45,5.13
68.88,3.81
69.30,2.34
69.72,1.43
70.14,1.43
70.56,1.81
70.98,2.09
71.40,2.39
71.82,2.67
72.24,2.68
72.66,2.60
73.08,2.51
73.50,2.26
73.92,1.89
74.34,1.73
74.76,2.11
75.18,2.65
75.61,3.12
76.03,3.62
76.45,4.23
76.87,5.29
77.29,6.59
77.71,6.75
78.13,5.53
78.55,4.76
78.97,5.28
79.39,5.40
79.81,5.53
80.23,4.44
80.65,3.06
81.07,2.42
81.49,1.97
81.91,1.33
82.33,1.11
82.76,1.25
83.18,1.05
83.60,0.95
84.02,2.06
84.44,3.80
84.86,4.33
85.28,3.61
85.70,3.19
86.12,3.14
86.54,2.90
86.96,2.66
87.38,2.25
87.80,2.55
88.22,3.06
88.64,3.27
89.06,2.89
89.48,1.66
89.91,0.17
90.33,0.14
90.75,2.13
91.17,4.16
91.59,4.28
92.01,3.07
92.43,2.08
92.85,1.82
93.27,1.76
93.69,1.71
94.11,0.97
94.53,-0.11
94.95,-0.06
95.37,1.41
95.79,2.77
96.21,3.21
96.64,3.60
97.06,4.60
97.48,5.44
97.90,5.07
98.32,3.50
98.74,1.72
99.16,0.79
99.58,1.24
100.00,2.01
101.00,2.79
101.52,4.60
102.04,5.82
102.56,5.91
103.08,5.32
103.61,5.04
104.13,5.12
104.65,4.80
105.17,3.91
105.69,2.93
106.21,2.24
106.73,1.74
107.25,1.20
107.77,0.68
108.29,0.40
108.82,0.42
109.34,0.45
109.86,0.56
110.38,0.24
110.90,-0.29
111.42,-0.48
111.94,-0.51
112.46,-0.58
112.98,-0.26
113.51,0.48
114.03,0.88
114.55,0.71
115.07,0.56
115.59,0.82
116.11,1.15
116.63,1.14
117.15,1.00
117.67,0.87
118.19,0.34
118.72,-0.60
119.24,-1.27
119.76,-1.02
120.28,-0.57
120.80,-0.83
121.32,-1.52
121.84,-1.69
122.36,-1.08
122.88,-0.38
123.41,-0.05
123.93,0.14
124.45,0.40
124.97,0.75
125.49,0.98
126.01,0.96
126.53,0.94
127.05,0.89
127.57,1.17
128.09,1.54
128.62,1.47
129.14,0.62
129.66,-1.03
130.18,-3.20
130.70,-4.78
131.22,-4.64
131.74,-3.05
132.26,-1.17
132.78,0.08
133.31,0.23
133.83,-0.67
134.35,-1.28
134.87,-1.89
135.39,-2.69
135.91,-3.25
136.43,-3.66
136.95,-3.16
137.47,-1.94
137.99,-1.30
138.52,-1.30
139.04,-0.97
139.56,-0.58
140.08,-0.80
140.60,-0.73
141.12,0.35
141.64,1.17
142.16,0.39
142.68,-0.60
143.21,-1.59
143.73,-3.31
144.25,-3.73
144.77,-3.08
145.29,-2.31
145.81,-2.00
146.33,-1.95
146.85,-2.17
147.37,-3.11
147.89,-4.14
148.42,-3.96
148.94,-2.98
149.46,-2.23
149.98,-1.39
150.50,-0.28
151.02,-0.10
151.54,0.08
152.06,-0.62
152.58,-1.15
153.11,-0.57
153.63,0.21
154.15,-0.28
154.67,-1.96
155.19,-3.51
155.71,-4.09
156.23,-3.93
156.75,-3.32
157.27,-2.60
157.79,-2.70
158.32,-3.40
158.84,-3.07
159.36,-2.35
159.88,-1.63
160.40,-0.68
160.92,-0.54
161.44,-0.48
161.96,-0.63
162.48,-1.19
163.01,-1.32
163.53,-0.69
164.05,-0.38
164.57,-1.07
165.09,-2.01
165.61,-2.05
166.13,-0.93
166.65,0.60
167.17,1.46
167.69,1.28
168.22,1.02
168.74,0.76
169.26,0.84
169.78,1.39
170.30,1.42
170.82,0.56
171.34,-0.36
171.86,-0.40
172.38,0.53
172.91,1.71
173.43,2.29
173.95,1.82
174.47,0.86
174.99,0.45
175.51,0.84
176.03,1.31
176.55,1.50
177.07,1.68
177.59,2.58
178.12,3.67
178.64,3.86
179.16,3.48
179.68,3.76
180.20,4.17
180.72,3.51
181.24,2.61
181.76,2.84
182.28,3.70
182.81,4.09
183.33,4.06
183.85,3.53
184.37,2.36
184.89,2.22
185.41,2.08
185.93,3.81
186.45,5.89
186.97,6.47
187.49,5.97
188.02,5.75
188.54,6.31
189.06,7.28
189.58,8.64
190.10,10.66
190.62,12.56
191.14,13.34
191.66,13.36
192.18,13.49
192.71,13.56
193.23,13.31
193.75,13.05
194.27,12.33
194.79,12.16
195.31,12.42
195.83,12.63
196.35,12.72
196.87,12.85
197.39,13.22
197.92,14.05
198.44,14.82
198.96,14.80
199.48,14.22
200.00,13.55
201.00,12.75
201.59,12.22
202.17,12.47
202.76,12.72
203.34,14.08
203.93,15.61
204.51,17.15
205.10,18.38
205.69,18.46
206.27,17.02
206.86,15.01
207.44,13.66
208.03,13.26
208.62,13.62
209.20,14.82
209.79,16.38
210.37,17.16
210.96,16.60
211.54,15.15
212.13,14.37
212.72,13.60
213.30,12.48
213.89,11.77
214.47,11.13
215.06,10.41
215.64,10.10
216.23,10.73
216.82,11.87
217.40,12.45
217.99,12.01
218.57,11.09
219.16,10.59
219.75,11.07
220.33,12.24
220.92,13.12
221.50,13.07
222.09,13.03
222.67,12.26
223.26,11.56
223.85,11.38
224.43,11.70
225.02,11.96
225.60,11.78
226.19,11.67
226.78,12.84
227.36,15.56
227.95,18.37
228.53,19.81
229.12,20.32
229.70,21.32
230.29,22.82
230.88,23.31
231.46,23.79
232.05,23.95
232.63,23.72
233.22,23.56
233.80,23.78
234.39,24.08
234.98,23.93
235.56,23.67
236.15,24.11
236.73,25.53
237.32,27.83
237.91,30.81
238.49,33.97
239.08,36.81
239.66,39.11
240.25,39.85
240.83,40.59
241.42,41.55
242.01,43.09
242.59,45.73
243.18,48.59
243.76,50.84
244.35,52.52
244.93,53.92
245.52,55.37
246.11,57.23
246.69,60.11
247.28,64.73
247.86,71.05
248.45,77.83
249.04,83.27
249.62,85.95
250.21,86.12
250.79,86.28
251.38,86.06
251.96,85.89
252.55,85.16
253.14,85.41
253.72,89.96
254.31,99.75
254.89,112.94
255.48,127.14
256.07,139.89
256.65,148.74
257.24,152.69
257.82,153.21
258.41,152.78
258.99,152.22
259.58,151.18
260.17,150.13
260.75,145.75
261.34,140.94
261.92,138.24
262.51,138.66
263.09,142.52
263.68,151.04
264.27,165.85
264.85,187.29
265.44,214.38
266.02,246.80
266.61,284.57
267.20,325.52
267.78,366.05
268.37,404.80
268.95,424.26
269.54,443.71
270.12,484.93
270.71,527.18
271.30,565.57
271.88,595.80
272.47,618.99
273.05,643.04
273.64,681.07
274.22,747.87
274.81,853.91
275.40,1000.27
275.98,1178.05
276.57,1372.20
277.15,1567.91
277.74,1757.10
278.33,1849.13
278.91,1941.15
279.50,2128.70
280.08,2332.02
280.67,2568.88
281.25,2868.27
281.84,3271.21
282.43,3821.17
283.01,4552.81
283.60,5512.45
284.18,6831.15
284.77,8763.96
285.36,11522.56
285.94,14917.53
286.53,18158.54
287.11,20126.37
287.70,20067.65
288.28,20008.93
288.87,17825.25
289.46,14378.79
290.04,10696.11
290.63,7495.76
291.21,5051.78
291.80,3335.76
292.38,2196.26
292.97,1471.18
293.56,1030.01
294.14,775.90
294.73,639.14
295.31,572.11
295.90,543.40
296.49,532.69
297.07,527.39
297.66,523.64
298.24,519.89
298.83,505.50
299.41,481.62
300.00,447.69
301.00,405.61
301.70,359.97
302.39,316.53
303.09,279.72
303.79,251.27
304.49,230.61
305.18,216.09
305.88,206.53
306.58,201.69
307.27,200.45
307.97,199.70
308.67,198.15
309.37,196.59
310.06,190.70
310.76,182.88
311.46,173.67
312.15,163.77
312.85,154.39
313.55,146.61
314.25,140.60
314.94,135.31
315.64,128.50
316.34,118.41
317.04,106.25
317.73,94.78
318.43,84.74
319.13,75.33
319.82,70.82
320.52,66.30
321.22,57.33
321.92,48.13
322.61,39.71
323.31,33.66
324.01,30.38
324.70,28.91
325.40,27.89
326.10,26.38
326.80,24.65
327.49,23.71
328.19,23.47
328.89,22.94
329.58,21.83
330.28,20.61
330.98,20.26
331.68,19.91
332.37,19.93
333.07,20.02
333.77,19.51
334.46,18.24
335.16,16.51
335.86,15.10
336.56,14.57
337.25,14.30
337.95,13.55
338.65,12.43
339.35,10.98
340.04,9.05
340.74,7.70
341.44,8.18
342.13,8.88
342.83,9.57
343.53,9.79
344.23,8.87
344.92,8.29
345.62,8.09
346.32,7.43
347.01,6.51
347.71,5.84
348.41,5.24
349.11,4.29
349.80,3.20
350.50,2.82
351.20,3.20
351.89,3.51
352.59,3.70
353.29,3.85
353.99,3.66
354.68,3.46
355.38,2.79
356.08,2.70
356.77,2.95
357.47,2.73
358.17,2.18
358.87,2.04
359.56,2.50
360.26,3.42
360.96,4.59
361.65,4.95
362.35,3.57
363.05,1.53
363.75,0.53
364.44,0.62
365.14,0.72
365.84,0.83
366.54,0.84
367.23,1.12
367.93,1.86
368.63,2.48
369.32,2.40
370.02,1.84
370.72,1.36
371.42,1.03
372.11,0.66
372.81,0.23
373.51,0.03
374.20,0.25
374.90,0.89
375.60,1.87
376.30,2.17
376.99,2.47
377.69,1.84
378.39,1.02
379.08,1.70
379.78,3.56
380.48,4.97
381.18,5.17
381.87,4.28
382.57,2.72
383.27,1.27
383.96,0.61
384.66,0.69
385.36,0.74
386.06,0.03
386.75,-1.20
387.45,-1.57
388.15,-1.94
388.85,-1.58
389.54,-0.54
390.24,0.50
390.94,1.35
391.63,1.96
392.33,2.21
393.03,2.24
393.73,2.47
394.42,2.86
395.12,2.89
395.82,2.30
396.51,1.30
397.21,0.65
397.91,1.05
398.61,1.55
399.30,2.05
400.00,2.52
401.00,2.36
401.72,2.29
402.45,2.46
403.17,2.66
403.89,3.01
404.61,3.55
405.34,3.66
406.06,2.68
406.78,1.48
407.50,1.99
408.23,4.30
408.95,6.07
409.67,6.05
410.39,5.62
411.12,5.62
411.84,5.62
412.56,4.99
413.28,3.38
414.01,2.12
414.73,2.02
415.45,2.52
416.18,2.66
416.90,2.02
417.62,1.01
418.34,0.07
419.07,-0.90
419.79,-1.72
420.51,-1.88
421.23,-1.40
421.96,-0.58
422.68,-0.06
423.40,0.46
424.12,1.49
424.85,2.09
425.57,1.99
426.29,1.14
427.01,-0.25
427.74,-1.38
428.46,-1.33
429.18,-0.02
429.91,1.87
430.63,3.84
431.35,5.36
432.07,5.37
432.80,4.01
433.52,3.14
434.24,3.31
434.96,3.48
435.69,3.42
436.41,1.89
437.13,0.61
437.85,1.72
438.58,4.51
439.30,6.56
440.02,6.95
440.74,6.61
441.47,6.17
442.19,5.33
442.91,4.08
443.64,3.12
444.36,2.92
445.08,3.33
445.80,3.60
446.53,3.87
447.25,3.92
447.97,3.16
448.69,2.05
449.42,1.41
450.14,1.56
450.86,2.13
451.58,2.81
452.31,3.98
453.03,5.56
453.75,6.59
454.47,6.36
455.20,5.03
455.92,3.56
456.64,2.64
457.36,2.31
458.09,1.99
458.81,1.74
459.53,2.72
460.26,4.49
460.98,5.42
461.70,4.97
462.42,3.83
463.15,2.74
463.87,2.43
464.59,3.50
465.31,5.47
466.04,6.94
466.76,6.94
467.48,5.71
468.20,4.25
468.93,3.11
469.65,2.64
470.37,2.18
471.09,1.71
471.82,2.00
472.54,2.61
473.26,3.05
473.99,3.22
474.71,3.13
475.43,3.02
476.15,3.07
476.88,2.80
477.60,1.87
478.32,0.85
479.04,0.63
479.77,1.40
480.49,2.48
481.21,2.76
481.93,3.05
482.66,3.35
483.38,4.10
484.10,4.94
484.82,5.01
485.55,4.43
486.27,4.05
486.99,4.46
487.72,5.60
488.44,6.59
489.16,6.31
489.88,4.90
490.61,3.60
491.33,3.12
492.05,3.46
492.77,3.94
493.50,4.42
494.22,5.18
494.94,5.26
495.66,5.38
496.39,6.20
497.11,7.12
497.83,7.15
498.55,5.98
499.28,4.06
500.00,2.14
501.00,1.21
502.01,1.82
503.02,2.90
504.03,3.03
505.04,2.46
506.05,2.36
507.06,2.26
508.07,2.37
509.08,2.37
510.09,2.54
511.10,3.00
512.11,3.28
513.12,3.20
514.13,3.01
515.14,2.81
516.15,2.45
517.16,2.12
518.17,1.92
519.18,1.33
520.19,0.56
521.20,0.76
522.21,1.26
523.22,1.76
524.23,2.14
525.24,1.64
526.26,1.03
527.27,0.30
528.28,-0.69
529.29,-0.95
530.30,-0.17
531.31,0.16
532.32,-0.70
533.33,-1.50
534.34,-1.59
535.35,-1.66
536.36,-1.83
537.37,-1.73
538.38,-1.31
539.39,-0.93
540.40,-0.55
541.41,0.42
542.42,1.02
543.43,0.89
544.44,0.52
545.45,0.46
546.46,0.44
547.47,-0.23
548.48,-1.62
549.49,-2.83
550.50,-2.89
551.51,-1.90
552.52,-0.87
553.53,-0.81
554.54,-1.89
555.55,-2.43
556.56,-2.96
557.57,-2.78
558.58,-1.78
559.59,-1.48
560.60,-2.15
561.61,-2.51
562.62,-1.90
563.63,-1.39
564.64,-1.73
565.65,-2.31
566.66,-2.78
567.67,-3.24
568.68,-3.15
569.69,-1.99
570.70,-0.49
571.71,-0.18
572.72,0.13
573.73,-0.12
574.74,-0.21
575.76,0.15
576.77,0.43
577.78,0.46
578.79,0.65
579.80,1.13
580.81,1.18
581.82,0.26
582.83,-0.65
583.84,-0.35
584.85,0.71
585.86,1.43
586.87,1.48
587.88,1.24
588.89,1.01
589.90,0.35
590.91,0.09
591.92,0.67
592.93,2.07
593.94,3.59
594.95,4.12
595.96,3.45
596.97,2.49
597.98,1.93
598.99,1.51
600.00,1.15
601.00,1.50
602.18,2.57
603.36,3.42
604.54,3.53
605.71,3.64
606.89,3.56
608.07,3.17
609.25,2.73
610.43,3.03
611.61,3.65
612.79,3.23
613.96,1.89
615.14,0.98
616.32,1.04
617.50,1.93
618.68,3.17
619.86,3.92
621.04,4.22
622.21,4.65
623.39,5.14
624.57,5.30
625.75,5.47
626.93,5.56
628.11,4.81
629.29,3.22
630.46,2.26
631.64,2.64
632.82,3.09
634.00,2.92
635.18,2.69
636.36,2.48
637.54,2.22
638.71,2.23
639.89,2.48
641.07,2.80
642.25,3.30
643.43,3.52
644.61,3.73
645.79,3.66
646.96,3.22
648.14,3.16
649.32,3.72
650.50,4.00
651.68,3.25
652.86,2.16
654.04,1.89
655.21,2.81
656.39,4.42
657.57,5.75
658.75,5.96
659.93,5.02
661.11,3.69
662.29,3.21
663.46,2.74
664.64,2.44
665.82,2.86
667.00,3.99
668.18,5.18
669.36,5.74
670.54,6.22
671.71,7.44
672.89,8.74
674.07,8.93
675.25,8.32
676.43,8.41
677.61,9.65
678.79,10.46
679.96,9.41
681.14,8.38
682.32,7.35
683.50,5.94
684.68,5.33
685.86,4.87
687.04,4.90
688.21,6.24
689.39,8.33
690.57,9.49
691.75,9.02
692.93,7.82
694.11,7.04
695.29,7.35
696.46,8.55
697.64,9.32
698.82,8.57
700.00,7.04
701.00,6.87
702.98,6.70
704.96,8.37
706.94,10.35
708.92,10.68
710.90,9.82
712.88,9.40
714.86,9.84
716.84,10.34
718.82,9.99
720.80,9.04
722.78,8.90
724.76,9.82
726.74,10.06
728.72,8.95
730.70,8.24
732.68,8.63
734.66,9.01
736.64,9.98
738.62,10.06
740.60,9.90
742.58,9.96
744.56,9.78
746.54,9.59
748.52,9.62
750.50,8.75
752.48,6.64
754.46,4.98
756.44,4.87
758.42,5.29
760.40,5.09
762.38,4.70
764.36,4.79
766.34,4.87
768.32,4.81
770.30,3.48
772.28,1.95
774.26,2.11
776.24,3.87
778.22,5.42
780.20,5.58
782.18,4.84
784.16,3.94
786.14,2.89
788.12,2.25
790.10,2.83
792.08,4.14
794.06,5.34
796.04,5.89
798.02,6.44
800.00,7.50
801.00,8.45
803.36,9.03
805.71,8.55
808.07,7.06
810.43,5.66
812.79,4.86
815.14,4.39
817.50,3.89
819.86,3.22
822.21,2.92
824.57,3.75
826.93,5.31
829.29,6.53
831.64,6.78
834.00,7.02
836.36,6.92
838.71,6.30
841.07,5.30
843.43,4.43
845.79,3.99
848.14,3.85
850.50,4.02
852.86,4.61
855.21,5.05
857.57,4.86
859.93,4.79
862.29,5.41
864.64,6.10
867.00,6.36
869.36,6.63
871.71,6.82
874.07,7.01
876.43,6.68
878.79,5.02
881.14,2.82
883.50,1.68
885.86,2.07
888.21,3.04
890.57,3.94
892.93,4.57
895.29,4.12
897.64,2.54
900.00,1.46
901.00,1.60
904.67,1.51
908.33,0.24
912.00,-0.55
915.67,-1.35
919.33,-2.32
923.00,-2.26
926.67,-1.18
930.33,0.09
934.00,0.65
937.67,0.70
941.33,1.01
945.00,1.70
948.67,1.92
952.33,1.01
956.00,-0.33
959.67,-0.60
963.33,0.73
967.00,2.38
970.67,2.68
974.33,2.98
978.00,2.49
981.67,1.51
985.33,0.65
989.00,0.87
992.67,2.14
996.33,2.75
1000.00,1.85
1001.00,0.68
1006.10,0.11
1011.21,-0.08
1016.31,0.20
1021.41,0.67
1026.51,0.34
1031.62,-0.63
1036.72,-0.79
1041.82,-0.96
1046.92,-0.38
1052.03,0.20
1057.13,0.39
1062.23,0.62
1067.33,1.03
1072.44,1.28
1077.54,1.47
1082.64,1.86
1087.74,2.08
1092.85,1.62
1097.95,0.73
1103.05,0.05
1108.15,-0.14
1113.26,0.06
1118.36,0.26
1123.46,0.47
1128.56,0.95
1133.67,1.42
1138.77,1.69
1143.87,1.45
1148.97,0.78
1154.08,0.34
1159.18,0.38
1164.28,0.05
1169.38,-0.91
1174.49,-1.33
1179.59,-0.61
1184.69,0.22
1189.79,0.17
1194.90,-0.45
1200.00,-0.90
1201.00,-0.88
1210.06,-0.86
1219.12,-0.44
1228.18,0.02
1237.24,0.31
1246.30,0.55
1255.36,0.96
1264.42,1.53
1273.48,1.71
1282.55,1.16
1291.61,0.50
1300.67,0.14
1309.73,-0.20
1318.79,-0.46
1327.85,-0.20
1336.91,0.47
1345.97,0.64
1355.03,0.80
1364.09,0.38
1373.15,-0.28
1382.21,-0.57
1391.27,-0.70
1400.33,-0.99
1409.39,-1.45
1418.45,-1.74
1427.52,-1.20
1436.58,0.38
1445.64,1.82
1454.70,1.91
1463.76,1.26
1472.82,1.16
1481.88,1.32
1490.94,1.06
1500.00,0.80
1501.00,0.19
1510.24,0.30
1519.48,0.54
1528.72,0.13
1537.96,-0.52
1547.20,-0.59
1556.44,0.10
1565.69,0.60
1574.93,-0.13
1584.17,-1.49
1593.41,-1.84
1602.65,-0.87
1611.89,0.18
1621.13,0.23
1630.37,-0.20
1639.61,-0.63
1648.85,-1.47
1658.09,-1.57
1667.33,-0.90
1676.57,0.07
1685.81,0.60
1695.06,-0.07
1704.30,-1.47
1713.54,-1.40
1722.78,1.23
1732.02,4.17
1741.26,4.96
1750.50,4.09
1759.74,3.25
1768.98,2.70
1778.22,2.32
1787.46,1.93
1796.70,1.42
1805.94,1.79
1815.19,2.54
1824.43,3.06
1833.67,3.36
1842.91,3.11
1852.15,2.04
1861.39,1.06
1870.63,1.15
1879.87,2.11
1889.11,3.00
1898.35,3.26
1907.59,3.08
1916.83,2.83
1926.07,2.70
1935.31,2.91
1944.56,3.11
1953.80,4.14
1963.04,4.69
1972.28,3.83
1981.52,2.09
1990.76,0.42
2000.00,-0.75
2001.00,-1.41
2018.22,-1.53
2035.45,-0.77
2052.67,0.78
2069.90,2.11
2087.12,2.70
2104.34,3.02
2121.57,3.39
2138.79,3.59
2156.02,3.78
2173.24,4.11
2190.47,4.24
2207.69,3.99
2224.91,3.31
2242.14,2.39
2259.36,1.72
2276.59,1.63
2293.81,1.63
2311.03,1.33
2328.26,1.33
2345.48,2.11
2362.71,3.33
2379.93,4.35
2397.16,4.43
2414.38,3.96
2431.60,3.49
2448.83,2.74
2466.05,3.07
2483.28,3.79
2500.50,3.97
2517.72,3.71
2534.95,3.44
2552.17,3.33
2569.40,3.35
2586.62,3.32
2603.84,2.96
2621.07,2.08
2638.29,1.15
2655.52,1.29
2672.74,2.51
2689.97,2.94
2707.19,3.38
2724.41,3.69
2741.64,4.27
2758.86,4.82
2776.09,4.82
2793.31,4.69
2810.53,4.66
2827.76,4.16
2844.98,2.73
2862.21,1.01
2879.43,0.35
2896.66,0.74
2913.88,0.90
2931.10,0.68
2948.33,0.93
2965.55,1.25
2982.78,1.57
3000.00,1.93
3001.00,2.10
3025.99,2.90
3050.98,4.70
3075.98,6.56
3100.97,6.82
3125.96,5.09
3150.95,2.92
3175.94,1.84
3200.93,2.14
3225.93,3.48
3250.92,4.65
3275.91,4.23
3300.90,2.93
3325.89,2.87
3350.88,3.64
3375.87,4.42
3400.87,5.89
3425.86,5.82
3450.85,4.61
3475.84,3.65
3500.83,3.32
3525.82,2.82
3550.82,2.14
3575.81,2.17
3600.80,2.95
3625.79,3.43
3650.78,3.11
3675.77,2.37
3700.77,1.73
3725.76,1.61
3750.75,1.91
3775.74,2.22
3800.73,3.19
3825.73,3.83
3850.72,3.81
3875.71,3.59
3900.70,4.01
3925.69,5.23
3950.68,6.53
3975.68,6.98
4000.67,6.00
4025.66,4.09
4050.65,2.78
4075.64,2.73
4100.63,3.14
4125.62,3.38
4150.62,3.53
4175.61,3.69
4200.60,4.16
4225.59,4.56
4250.58,5.00
4275.58,5.52
4300.57,5.66
4325.56,5.00
4350.55,3.88
4375.54,3.13
4400.53,3.17
4425.52,3.66
4450.52,3.96
4475.51,3.88
4500.50,3.75
4525.49,3.80
4550.48,3.88
4575.48,3.96
4600.47,4.19
4625.46,4.43
4650.45,4.46
4675.44,4.22
4700.43,3.82
4725.42,3.16
4750.42,2.25
4775.41,1.58
4800.40,1.60
4825.39,2.38
4850.38,3.63
4875.37,4.33
4900.37,3.55
4925.36,1.86
4950.35,1.30
4975.34,0.74
5000.33,0.65
5025.33,0.80
5050.32,0.52
5075.31,-0.03
5100.30,-0.24
5125.29,0.19
5150.28,1.12
5175.27,1.94
5200.27,2.07
5225.26,1.65
5250.25,1.62
5275.24,2.41
5300.23,3.55
5325.23,4.57
5350.22,5.20
5375.21,5.20
5400.20,5.20
5425.19,5.10
5450.18,5.74
5475.17,6.57
5500.17,6.57
5525.16,6.34
5550.15,6.98
5575.14,8.31
5600.13,10.31
5625.12,14.92
5650.12,25.12
5675.11,44.89
5700.10,81.34
5725.09,145.74
5750.08,251.98
5775.08,331.89
5800.07,411.81
5825.06,627.89
5850.05,889.51
5875.04,1173.09
5900.03,1444.98
5925.02,1666.75
5950.02,1804.06
5975.01,1835.76
6000.00,1758.68
6024.79,1588.14
6049.64,1353.57
6074.48,1090.29
6099.32,831.51
6124.16,602.11
6149.01,415.53
6173.85,345.43
6198.69,275.34
6223.53,177.75
6248.38,113.86
6273.22,73.45
6298.06,48.42
6322.90,33.28
6347.75,24.05
6372.59,18.17
6397.43,14.98
6422.27,14.45
6447.12,15.36
6471.96,16.00
6496.80,16.33
6521.65,17.16
6546.49,18.12
6571.33,18.34
6596.17,18.56
6621.02,18.44
6645.86,17.69
6670.70,16.53
6695.54,15.70
6720.39,15.36
6745.23,14.78
6770.07,13.42
6794.91,11.64
6819.76,10.03
6844.60,8.31
6869.44,6.00
6894.28,3.91
6919.13,3.22
6943.97,3.80
6968.81,4.61
6993.65,4.63
7018.50,4.64
7043.34,3.60
7068.18,2.32
7093.02,1.61
7117.87,1.55
7142.71,1.97
7167.55,2.28
7192.39,1.61
7217.24,-0.04
7242.08,-1.71
7266.92,-2.61
7291.77,-2.68
7316.61,-2.12
7341.45,-1.12
7366.29,-0.39
7391.14,-0.46
7415.98,-0.53
7440.82,-1.31
7465.66,-2.23
7490.51,-2.92
7515.35,-2.99
7540.19,-2.40
7565.03,-1.28
7589.88,0.08
7614.72,0.90
7639.56,0.77
7664.40,0.08
7689.25,-1.06
7714.09,-2.35
7738.93,-2.76
7763.77,-2.06
7788.62,-1.59
7813.46,-1.12
7838.30,-0.35
7863.14,0.01
7887.99,-0.77
7912.83,-2.66
7937.67,-4.34
7962.51,-4.40
7987.36,-2.66
8012.20,-0.65
8037.04,-0.12
8061.89,-0.82
8086.73,-1.32
8111.57,-1.43
8136.41,-1.74
8161.26,-2.10
8186.10,-2.24
8210.94,-2.38
8235.78,-3.07
8260.63,-3.91
8285.47,-3.91
8310.31,-2.83
8335.15,-1.32
8360.00,-0.15
8384.84,-0.04
8409.68,-1.24
8434.52,-2.75
8459.37,-2.94
8484.21,-1.68
8509.05,-0.46
8533.89,-0.30
8558.74,-1.16
8583.58,-1.75
8608.42,-2.35
8633.26,-2.74
8658.11,-1.97
8682.95,-0.89
8707.79,-0.27
8732.63,-0.46
8757.48,-1.67
8782.32,-3.46
8807.16,-4.91
8832.00,-5.69
8856.85,-6.00
8881.69,-6.00
8906.53,-5.58
8931.37,-4.66
8956.22,-3.50
8981.06,-2.78
9005.90,-3.00
9030.75,-3.22
9055.59,-4.53
9080.43,-5.31
9105.27,-4.94
9130.12,-4.34
9154.96,-4.11
9179.80,-3.78
9204.64,-3.37
9229.49,-3.33
9254.33,-3.30
9279.17,-2.75
9304.01,-2.17
9328.86,-2.25
9353.70,-2.55
9378.54,-2.45
9403.38,-2.40
9428.23,-2.36
9453.07,-2.72
9477.91,-3.42
9502.75,-4.11
9527.60,-4.17
9552.44,-3.61
9577.28,-3.50
9602.12,-4.26
9626.97,-4.73
9651.81,-3.84
9676.65,-2.07
9701.50,-0.64
9726.34,-0.25
9751.18,-0.86
9776.02,-1.62
9800.87,-1.68
9825.71,-1.73
9850.55,-1.35
9875.39,-1.20
9900.24,-1.73
9925.08,-2.46
9949.92,-2.32
9974.76,-1.62
9999.61,-1.64
10024.45,-2.24
10049.29,-2.49
10074.13,-2.37
10098.98,-2.21
10123.82,-1.92
10148.66,-1.60
10173.50,-1.77
10198.35,-2.10
10223.19,-2.43
10248.03,-2.95
10272.87,-2.87
10297.72,-2.49
10322.56,-2.43
10347.40,-2.79
10372.25,-3.10
10397.09,-2.93
10421.93,-2.60
10446.77,-2.76
10471.62,-3.21
10496.46,-3.57
10521.30,-3.91
10546.14,-3.93
10570.99,-3.35
10595.83,-3.10
10620.67,-2.85
10645.51,-2.99
10670.36,-3.57
10695.20,-4.32
10720.04,-5.08
10744.88,-5.51
10769.73,-5.16
10794.57,-4.02
10819.41,-2.71
10844.25,-2.02
10869.10,-1.83
10893.94,-1.38
10918.78,-1.14
10943.62,-2.50
10968.47,-4.88
10993.31,-5.94
11018.15,-5.56
11043.00,-5.18
11067.84,-4.39
11092.68,-4.63
11117.52,-5.21
11142.37,-5.13
11167.21,-3.63
11192.05,-1.05
11216.89,0.58
11241.74,-0.31
11266.58,-2.69
11291.42,-4.44
11316.26,-5.03
11341.11,-5.16
11365.95,-4.88
11390.79,-3.95
11415.63,-3.51
11440.48,-3.06
11465.32,-3.06
11490.16,-3.67
11515.00,-3.91
11539.85,-3.38
11564.69,-2.48
11589.53,-1.89
11614.37,-1.94
11639.22,-2.28
11664.06,-2.48
11688.90,-2.87
11713.74,-4.05
11738.59,-5.64
11763.43,-6.44
11788.27,-5.95
11813.12,-5.44
11837.96,-4.94
11862.80,-3.98
11887.64,-3.26
11912.49,-3.34
11937.33,-4.25
11962.17,-4.76
11987.01,-4.12
12011.86,-2.98
12036.70,-2.06
12061.54,-1.56
12086.38,-1.97
12111.23,-3.47
12136.07,-4.95
12160.91,-5.17
12185.75,-3.98
12210.60,-2.99
12235.44,-2.00
12260.28,-0.36
12285.12,-0.18
12309.97,-1.29
12334.81,-2.70
12359.65,-4.03
12384.49,-4.96
12409.34,-4.76
12434.18,-3.43
12459.02,-2.12
12483.86,-1.82
12508.71,-2.34
12533.55,-2.70
12558.39,-2.73
12583.24,-3.01
12608.08,-3.07
12632.92,-3.13
12657.76,-2.24
12682.61,-1.01
12707.45,-0.70
12732.29,-1.09
12757.13,-1.09
12781.98,-0.26
12806.82,0.88
12831.66,1.24
12856.50,0.24
12881.35,-1.43
12906.19,-2.77
12931.03,-3.40
12955.87,-3.44
12980.72,-3.34
13005.56,-3.24
13030.40,-3.07
13055.24,-2.90
13080.09,-2.12
13104.93,-1.15
13129.77,-0.63
13154.61,-0.91
13179.46,-1.63
13204.30,-2.41
13229.14,-2.94
13253.98,-2.61
13278.83,-1.55
13303.67,-1.04
13328.51,-1.63
13353.35,-2.33
13378.20,-2.21
13403.04,-1.52
13427.88,-1.28
13452.73,-1.04
13477.57,-0.86
13502.41,-0.64
13527.25,-0.38
13552.10,-0.22
13576.94,-0.24
13601.78,-0.33
13626.62,-0.10
13651.47,0.37
13676.31,0.29
13701.15,-0.32
13725.99,-0.50
13750.84,-0.02
13775.68,0.48
13800.52,0.65
13825.36,0.57
13850.21,0.48
13875.05,-0.20
13899.89,-0.88
13924.73,-0.55
13949.58,0.14
13974.42,-0.20
13999.26,-1.22
14024.10,-2.03
14048.95,-2.73
14073.79,-3.09
14098.63,-2.70
14123.47,-2.39
14148.32,-3.11
14173.16,-4.17
14198.00,-4.17
14222.85,-3.61
14247.69,-3.05
14272.53,-2.03
14297.37,-1.92
14322.22,-2.50
14347.06,-3.22
14371.90,-3.34
14396.74,-2.31
14421.59,-0.84
14446.43,-0.37
14471.27,-1.03
14496.11,-1.42
14520.96,-0.70
14545.80,0.14
14570.64,-0.15
14595.48,-1.28
14620.33,-1.66
14645.17,-2.04
14670.01,-2.01
14694.85,-1.72
14719.70,-1.56
14744.54,-1.06
14769.38,0.13
14794.22,0.99
14819.07,0.38
14843.91,-1.25
14868.75,-2.84
14893.59,-4.00
14918.44,-4.15
14943.28,-2.87
14968.12,-1.20
14992.97,-0.60
15017.81,-1.09
15042.65,-1.32
15067.49,-1.56
15092.34,-1.31
15117.18,-0.54
15142.02,0.32
15166.86,0.98
15191.71,0.83
15216.55,-0.38
15241.39,-1.91
15266.23,-2.88
15291.08,-3.16
15315.92,-3.07
15340.76,-2.79
15365.60,-2.13
15390.45,-1.09
15415.29,-0.37
15440.13,-0.49
15464.97,-0.62
15489.82,-1.30
15514.66,-1.35
15539.50,-0.73
15564.34,-0.32
15589.19,-0.26
15614.03,0.12
15638.87,0.67
15663.71,0.38
15688.56,-1.24
15713.40,-3.54
15738.24,-5.08
15763.08,-5.01
15787.93,-3.91
15812.77,-3.13
15837.61,-3.15
15862.46,-3.16
15887.30,-3.24
15912.14,-2.58
15936.98,-1.66
15961.83,-1.29
15986.67,-1.22
16011.51,-0.85
16036.35,-0.19
16061.20,0.22
16086.04,0.03
16110.88,-0.50
16135.72,-1.07
16160.57,-1.63
16185.41,-1.89
16210.25,-1.66
16235.09,-1.59
16259.94,-1.52
16284.78,-2.10
16309.62,-3.14
16334.46,-3.92
16359.31,-4.10
16384.15,-3.85
16408.99,-3.44
16433.84,-3.06
16458.68,-2.94
16483.52,-3.19
16508.36,-3.42
16533.21,-2.81
16558.05,-1.31
16582.89,-0.03
16607.73,0.44
16632.58,0.48
16657.42,0.52
16682.26,0.23
16707.10,-0.70
16731.95,-1.86
16756.79,-2.42
16781.63,-2.26
16806.47,-2.12
16831.32,-2.64
16856.16,-3.53
16881.00,-3.89
16905.84,-3.26
16930.69,-2.19
16955.53,-1.29
16980.37,-0.79
17005.21,-0.84
17030.06,-1.14
17054.90,-1.08
17079.74,-1.03
17104.58,-0.89
17129.43,-1.70
17154.27,-3.28
17179.11,-4.50
17203.96,-4.72
17228.80,-4.09
17253.64,-3.11
17278.48,-2.37
17303.33,-2.20
17328.17,-1.98
17353.01,-1.17
17377.85,-0.42
17402.70,-0.31
17427.54,-0.43
17452.38,-0.40
17477.22,-0.37
17502.07,-0.14
17526.91,-0.15
17551.75,-0.84
17576.59,-1.85
17601.44,-2.71
17626.28,-3.45
17651.12,-3.65
17675.96,-2.46
17700.81,-0.34
17725.65,0.82
17750.49,0.01
17775.33,-1.81
17800.18,-3.18
17825.02,-3.63
17849.86,-3.66
17874.71,-3.70
17899.55,-3.96
17924.39,-4.29
17949.23,-4.13
17974.07,-3.13
17998.92,-1.68
18023.76,-0.96
18048.60,-1.40
18073.45,-2.13
18098.29,-2.66
18123.13,-2.94
18147.97,-2.46
18172.82,-0.91
18197.66,1.06
18222.50,2.04
18247.34,1.39
18272.19,0.74
18297.03,-2.10
18321.87,-3.74
18346.71,-3.02
18371.56,-1.75
18396.40,-1.40
18421.24,-1.44
18446.08,-1.30
18470.93,-1.10
18495.77,-1.22
18520.61,-2.04
18545.46,-3.14
