Size (bp),Intensity
0.58,2165.95
1.00,1958.20
2.00,1405.64
2.42,815.30
2.84,401.94
3.26,191.81
3.68,110.20
4.10,85.29
4.52,79.89
4.94,79.68
5.36,79.65
5.79,79.61
6.21,78.07
6.63,74.87
7.05,69.67
7.47,62.07
7.89,52.68
8.31,43.04
8.73,34.93
9.15,29.18
9.57,24.95
9.99,21.51
10.41,19.43
10.83,18.73
11.25,18.23
11.67,17.21
12.09,15.91
12.52,14.52
12.94,12.79
13.36,10.71
13.78,8.87
14.20,7.82
14.62,7.83
15.04,8.32
15.46,8.80
15.88,9.77
16.30,9.74
16.72,9.10
17.14,8.74
17.56,8.58
17.98,8.35
18.40,8.35
18.82,8.82
19.24,9.61
19.67,10.50
20.09,10.92
20.51,10.05
20.93,8.03
21.35,6.61
21.77,7.22
22.19,8.95
22.61,9.64
23.03,8.64
23.45,7.11
23.87,5.94
24.29,5.66
24.71,5.38
25.13,5.72
25.55,6.55
25.97,6.83
26.39,6.34
26.82,5.62
27.24,5.26
27.66,5.58
28.08,6.04
28.50,5.97
28.92,5.54
29.34,5.37
29.76,5.75
30.18,6.75
30.60,8.07
31.02,8.90
31.44,8.40
31.86,6.87
32.28,5.84
32.70,5.96
33.12,5.89
33.55,4.71
33.97,4.26
34.39,3.81
34.81,4.29
35.23,5.04
35.65,4.99
36.07,5.15
36.49,6.66
36.91,8.95
37.33,10.48
37.75,10.32
38.17,8.96
38.59,7.96
39.01,8.27
39.43,9.49
39.85,10.93
40.27,12.35
40.70,13.55
41.12,14.15
41.54,14.04
41.96,13.50
42.38,12.85
42.80,12.40
43.22,12.33
43.64,12.31
44.06,12.29
44.48,11.77
44.90,11.10
45.32,10.86
45.74,10.80
46.16,10.39
46.58,9.77
47.00,9.08
47.42,8.03
47.85,6.49
48.27,5.17
48.69,4.91
49.11,4.91
49.53,3.78
49.95,2.05
50.37,1.33
50.79,1.78
51.21,2.22
51.63,2.09
52.05,2.03
52.47,2.44
52.89,2.63
53.31,2.83
53.73,2.87
54.15,2.84
54.58,2.89
55.00,2.92
55.42,3.00
55.84,3.22
56.26,3.42
56.68,3.59
57.10,3.85
57.52,3.71
57.94,2.65
58.36,1.34
58.78,0.79
59.20,1.13
59.62,1.85
60.04,2.48
60.46,2.77
60.88,2.60
61.30,2.26
61.73,2.38
62.15,2.87
62.57,2.95
62.99,3.04
63.41,2.82
63.83,2.63
64.25,2.80
64.67,3.48
65.09,4.58
65.51,5.91
65.93,7.21
66.35,8.02
66.77,7.74
67.19,6.55
67.61,5.74
68.03,6.00
68.45,6.47
68.88,6.33
69.30,6.03
69.72,6.05
70.14,5.94
70.56,5.24
70.98,4.24
71.40,3.69
71.82,3.80
72.24,3.91
72.66,4.33
73.08,4.35
73.50,4.19
73.92,4.53
74.34,5.75
74.76,7.31
75.18,7.73
75.61,6.48
76.03,5.14
76.45,5.12
76.87,5.89
77.29,6.23
77.71,5.80
78.13,4.87
78.55,3.76
78.97,2.54
79.39,1.39
79.81,1.09
80.23,2.40
80.65,4.45
81.07,5.43
81.49,5.29
81.91,5.14
82.33,4.62
82.76,4.12
83.18,3.53
83.60,3.21
84.02,3.03
84.44,2.71
84.86,2.82
85.28,3.49
85.70,4.13
86.12,4.56
86.54,4.95
86.96,5.20
87.38,5.04
87.80,4.68
88.22,4.63
88.64,4.85
89.06,4.99
89.48,5.04
89.91,4.74
90.33,3.94
90.75,3.58
91.17,4.02
91.59,4.46
92.01,5.66
92.43,5.57
92.85,3.71
93.27,1.40
93.69,0.32
94.11,0.61
94.53,1.58
94.95,2.94
95.37,3.99
95.79,3.63
96.21,1.83
96.64,-0.17
97.06,-1.11
97.48,-0.73
97.90,0.35
98.32,1.17
98.74,1.09
99.16,0.59
99.58,0.80
100.00,1.92
101.00,2.46
101.52,3.00
102.04,3.27
102.56,3.14
103.08,3.50
103.61,4.50
104.13,5.45
104.65,5.72
105.17,5.29
105.69,4.53
106.21,3.84
106.73,3.33
107.25,2.50
107.77,1.29
108.29,0.50
108.82,0.73
109.34,1.95
109.86,3.28
110.38,3.29
110.90,1.74
111.42,0.07
111.94,-0.57
112.46,-0.07
112.98,0.59
113.51,1.24
114.03,2.40
114.55,2.40
115.07,1.31
115.59,0.01
116.11,-0.48
116.63,0.13
117.15,1.15
117.67,1.96
118.19,2.52
118.72,2.90
119.24,3.01
119.76,2.62
120.28,1.57
120.80,0.10
121.32,-1.07
121.84,-1.09
122.36,-0.04
122.88,0.94
123.41,1.33
123.93,1.39
124.45,1.24
124.97,1.08
125.49,0.47
126.01,0.22
126.53,0.53
127.05,1.00
127.57,1.64
128.09,2.56
128.62,2.92
129.14,1.95
129.66,0.41
130.18,-0.42
130.70,-0.23
131.22,0.20
131.74,0.14
132.26,-0.25
132.78,-0.48
133.31,-0.55
133.83,-0.53
134.35,-0.52
134.87,-0.49
135.39,-0.10
135.91,0.51
136.43,0.64
136.95,0.76
137.47,0.93
137.99,1.42
138.52,1.47
139.04,0.56
139.56,-0.18
140.08,0.67
140.60,2.59
141.12,3.75
141.64,3.34
142.16,1.74
142.68,-0.51
143.21,-2.30
143.73,-2.71
144.25,-2.48
144.77,-2.51
145.29,-2.33
145.81,-1.68
146.33,-1.07
146.85,-0.74
147.37,-0.63
147.89,-0.43
148.42,-0.03
148.94,0.37
149.46,1.44
149.98,2.08
150.50,2.15
151.02,1.54
151.54,0.26
152.06,-1.07
152.58,-1.68
153.11,-1.15
153.63,0.13
154.15,0.97
154.67,0.72
155.19,-0.09
155.71,-0.64
156.23,-0.62
156.75,-0.36
157.27,-0.20
157.79,0.00
158.32,0.31
158.84,0.17
159.36,-0.36
159.88,-0.33
160.40,-0.30
160.92,0.42
161.44,0.95
161.96,1.34
162.48,2.36
163.01,4.33
163.53,6.86
164.05,8.61
164.57,8.48
165.09,7.78
165.61,8.31
166.13,9.31
166.65,9.40
167.17,8.98
167.69,8.69
168.22,8.40
168.74,8.14
169.26,8.14
169.78,8.51
170.30,9.37
170.82,10.90
171.34,13.03
171.86,14.36
172.38,15.70
172.91,19.28
173.43,23.35
173.95,26.26
174.47,26.79
174.99,25.21
175.51,22.74
176.03,20.49
176.55,18.42
177.07,16.26
177.59,14.57
178.12,13.38
178.64,12.27
179.16,11.84
179.68,12.43
180.20,12.52
180.72,10.52
181.24,7.27
181.76,4.96
182.28,4.05
182.81,3.29
183.33,2.79
183.85,2.30
184.37,1.91
184.89,2.30
185.41,3.07
185.93,4.25
186.45,5.94
186.97,7.41
187.49,7.89
188.02,7.83
188.54,8.27
189.06,9.28
189.58,10.03
190.10,10.13
190.62,9.95
191.14,9.74
191.66,9.30
192.18,8.75
192.71,8.39
193.23,8.30
193.75,8.66
194.27,9.75
194.79,11.14
195.31,11.49
195.83,11.84
196.35,11.59
196.87,10.86
197.39,10.11
197.92,9.97
198.44,10.75
198.96,11.64
199.48,11.92
200.00,12.20
201.00,12.84
201.59,12.68
202.17,11.29
202.76,10.46
203.34,11.26
203.93,12.03
204.51,11.34
205.10,9.98
205.69,9.14
206.27,9.13
206.86,9.67
207.44,10.23
208.03,10.84
208.62,11.38
209.20,11.92
209.79,13.24
210.37,13.98
210.96,13.84
211.54,13.34
212.13,12.80
212.72,11.94
213.30,10.77
213.89,10.15
214.47,10.35
215.06,10.43
215.64,9.74
216.23,8.60
216.82,7.65
217.40,7.46
217.99,8.08
218.57,9.05
219.16,9.72
219.75,9.41
220.33,8.21
220.92,7.38
221.50,7.62
222.09,7.86
222.67,8.94
223.26,9.14
223.85,8.35
224.43,8.16
225.02,9.61
225.60,11.72
226.19,13.24
226.78,14.06
227.36,14.41
227.95,14.19
228.53,13.55
229.12,12.98
229.70,12.77
230.29,12.66
230.88,12.56
231.46,12.86
232.05,14.01
232.63,16.01
233.22,17.84
233.80,18.31
234.39,17.48
234.98,16.93
235.56,16.37
236.15,16.01
236.73,17.15
237.32,19.48
237.91,21.53
238.49,22.78
239.08,24.51
239.66,27.45
240.25,30.67
240.83,33.48
241.42,36.04
242.01,38.12
242.59,39.34
243.18,40.15
243.76,41.46
244.35,43.99
244.93,47.81
245.52,52.09
246.11,55.85
246.69,58.34
247.28,59.21
247.86,59.42
248.45,59.63
249.04,61.23
249.62,63.41
250.21,64.54
250.79,64.96
251.38,66.51
251.96,70.47
252.55,77.58
253.14,88.08
253.72,100.75
254.31,112.69
254.89,121.02
255.48,124.74
256.07,125.03
256.65,124.08
257.24,122.88
257.82,120.61
258.41,116.86
258.99,113.39
259.58,113.30
260.17,119.02
260.75,131.00
261.34,139.60
261.92,148.20
262.51,170.03
263.09,197.33
263.68,231.34
264.27,272.31
264.85,318.80
265.44,367.80
266.02,416.00
266.61,461.86
267.20,506.42
267.78,550.94
268.37,593.26
268.95,628.36
269.54,652.83
270.12,668.08
270.71,681.07
271.30,704.17
271.88,751.46
272.47,832.84
273.05,950.75
273.64,1100.04
274.22,1184.73
274.81,1269.42
275.40,1445.74
275.98,1620.23
276.57,1791.90
277.15,1966.45
277.74,2154.17
278.33,2370.95
278.91,2640.93
279.50,2997.01
280.08,3477.91
280.67,4135.48
281.25,5077.73
281.84,6542.23
282.43,8905.40
283.01,12470.73
283.60,17041.77
284.18,21638.94
284.77,24774.74
285.36,25240.66
285.94,22851.96
286.53,18546.01
287.11,13738.82
287.70,11628.25
288.28,9517.69
288.87,6315.11
289.46,4090.97
290.04,2626.66
290.63,1695.07
291.21,1119.32
291.80,776.49
292.38,582.02
292.97,478.24
293.56,427.94
294.14,406.91
294.73,398.52
295.31,392.28
295.90,382.64
296.49,367.19
297.07,345.44
297.66,317.73
298.24,285.05
298.83,250.17
299.41,217.83
300.00,191.67
301.00,171.56
301.70,163.37
302.39,155.19
303.09,141.51
303.79,131.09
304.49,123.67
305.18,117.70
305.88,112.58
306.58,108.78
307.27,105.25
307.97,99.73
308.67,91.79
309.37,82.81
310.06,74.06
310.76,66.17
311.46,59.14
312.15,52.68
312.85,46.82
313.55,41.73
314.25,37.48
314.94,34.42
315.64,32.98
316.34,32.43
317.04,31.67
317.73,30.91
318.43,27.65
319.13,23.63
319.82,20.04
320.52,17.41
321.22,15.87
321.92,14.94
322.61,13.66
323.31,11.55
324.01,9.47
324.70,8.15
325.40,7.19
326.10,6.85
326.80,8.10
327.49,10.52
328.19,12.08
328.89,11.44
329.58,9.57
330.28,8.19
330.98,7.41
331.68,6.57
332.37,5.86
333.07,5.60
333.77,5.33
334.46,4.55
335.16,4.10
335.86,5.16
336.56,7.86
337.25,11.14
337.95,13.80
338.65,15.33
339.35,16.13
340.04,16.67
340.74,16.78
341.44,16.14
342.13,14.72
342.83,12.51
343.53,10.03
344.23,8.09
344.92,6.75
345.62,5.40
346.32,3.70
347.01,1.89
347.71,0.59
348.41,0.34
349.11,0.09
349.80,0.14
350.50,0.46
351.20,1.01
351.89,1.68
352.59,2.28
353.29,2.65
353.99,2.84
354.68,3.04
355.38,3.48
356.08,4.13
356.77,4.71
357.47,4.95
358.17,4.84
358.87,4.29
359.56,2.96
360.26,0.98
360.96,-0.79
361.65,-1.62
362.35,-1.49
363.05,-0.87
363.75,-0.54
364.44,-0.67
365.14,-0.81
365.84,-0.81
366.54,-0.10
367.23,0.38
367.93,0.22
368.63,0.40
369.32,1.40
370.02,2.27
370.72,2.36
371.42,2.46
372.11,3.00
372.81,3.07
373.51,2.33
374.20,1.83
374.90,1.81
375.60,1.55
376.30,1.21
376.99,1.58
377.69,2.41
378.39,2.69
379.08,2.20
379.78,1.56
380.48,1.37
381.18,1.17
381.87,0.89
382.57,0.53
383.27,0.37
383.96,0.94
384.66,2.14
385.36,3.20
386.06,3.58
386.75,3.50
387.45,3.47
388.15,3.70
388.85,4.09
389.54,4.17
390.24,3.42
390.94,2.14
391.63,1.31
392.33,1.29
393.03,1.40
393.73,0.89
394.42,0.07
395.12,0.09
395.82,0.55
396.51,1.01
397.21,1.70
397.91,1.79
398.61,1.95
399.30,2.40
400.00,2.63
401.00,2.16
401.72,1.21
402.45,0.32
403.17,-0.15
403.89,0.29
404.61,1.60
405.34,2.48
406.06,2.27
406.78,2.08
407.50,2.22
408.23,1.79
408.95,0.99
409.67,0.76
410.39,0.85
411.12,0.41
411.84,-0.50
412.56,-0.62
413.28,-0.75
414.01,0.58
414.73,3.18
415.45,5.69
416.18,6.91
416.90,6.69
417.62,5.55
418.34,4.06
419.07,3.08
419.79,3.20
420.51,4.02
421.23,4.59
421.96,4.49
422.68,3.89
423.40,3.30
424.12,3.17
424.85,3.78
425.57,4.59
426.29,4.53
427.01,3.61
427.74,2.89
428.46,2.81
429.18,2.73
429.91,2.69
430.63,2.56
431.35,2.72
432.07,3.36
432.80,3.90
433.52,3.81
434.24,3.31
434.96,2.54
435.69,1.43
436.41,0.54
437.13,0.35
437.85,0.65
438.58,1.48
439.30,3.04
440.02,4.62
440.74,5.01
441.47,4.12
442.19,3.35
442.91,3.57
443.64,3.79
444.36,3.24
445.08,2.93
445.80,2.62
446.53,2.46
447.25,2.73
447.97,3.38
448.69,3.96
449.42,3.76
450.14,2.77
450.86,1.93
451.58,2.43
452.31,4.02
453.03,4.86
453.75,4.43
454.47,4.11
455.20,4.50
455.92,4.83
456.64,4.61
457.36,3.94
458.09,3.32
458.81,3.39
459.53,4.05
460.26,4.53
460.98,4.66
461.70,4.76
462.42,4.86
463.15,5.41
463.87,6.05
464.59,6.22
465.31,5.58
466.04,4.53
466.76,4.00
467.48,4.47
468.20,5.47
468.93,6.17
469.65,6.42
470.37,6.56
471.09,6.33
471.82,5.20
472.54,3.59
473.26,2.39
473.99,2.06
474.71,2.73
475.43,4.18
476.15,5.76
476.88,6.68
477.60,6.43
478.32,6.17
479.04,4.15
479.77,2.40
480.49,2.89
481.21,4.92
481.93,6.37
482.66,6.73
483.38,6.74
484.10,6.84
484.82,7.01
485.55,6.81
486.27,5.60
486.99,3.82
487.72,2.73
488.44,2.60
489.16,2.46
489.88,1.80
490.61,1.38
491.33,1.90
492.05,3.07
492.77,4.30
493.50,5.32
494.22,5.62
494.94,5.91
495.66,5.76
496.39,4.77
497.11,3.83
497.83,4.10
498.55,5.08
499.28,5.49
500.00,5.63
501.00,6.22
502.01,6.50
503.02,5.71
504.03,4.22
505.04,2.71
506.05,1.63
507.06,1.13
508.07,0.80
509.08,0.45
510.09,0.66
511.10,1.59
512.11,2.38
513.12,2.22
514.13,1.80
515.14,1.37
516.15,0.64
517.16,0.70
518.17,1.48
519.18,1.87
520.19,1.08
521.20,0.05
522.21,0.33
523.22,1.64
524.23,2.28
525.24,1.67
526.26,0.53
527.27,-0.57
528.28,-0.97
529.29,-0.18
530.30,0.62
531.31,-0.04
532.32,-1.00
533.33,-0.72
534.34,-0.07
535.35,-0.18
536.36,-0.52
537.37,-0.56
538.38,-0.60
539.39,-0.85
540.40,-1.13
541.41,-0.68
542.42,0.18
543.43,0.54
544.44,0.38
545.45,0.07
546.46,-0.13
547.47,-0.18
548.48,-0.57
549.49,-1.29
550.50,-1.43
551.51,-0.70
552.52,0.16
553.53,0.30
554.54,-0.14
555.55,-0.06
556.56,0.72
557.57,1.07
558.58,0.69
559.59,0.50
560.60,0.61
561.61,0.71
562.62,0.88
563.63,1.19
564.64,1.69
565.65,1.78
566.66,1.66
567.67,2.14
568.68,2.88
569.69,2.91
570.70,2.25
571.71,1.50
572.72,1.28
573.73,1.84
574.74,2.42
575.76,2.30
576.77,1.95
577.78,1.87
578.79,1.76
579.80,1.51
580.81,1.19
581.82,0.67
582.83,0.56
583.84,0.45
584.85,1.09
585.86,2.01
586.87,2.43
587.88,2.51
588.89,2.57
589.90,2.43
590.91,1.93
591.92,1.40
592.93,1.17
593.94,0.95
594.95,0.37
595.96,-0.16
596.97,-0.07
597.98,0.53
598.99,1.45
600.00,2.70
601.00,3.59
602.18,3.29
603.36,1.95
604.54,0.34
605.71,-0.65
606.89,-0.53
608.07,-0.41
609.25,0.69
610.43,1.77
611.61,2.23
612.79,1.93
613.96,1.27
615.14,1.18
616.32,2.21
617.50,3.36
618.68,3.07
619.86,1.54
621.04,0.24
622.21,-0.15
623.39,0.33
624.57,1.07
625.75,0.69
626.93,-0.95
628.11,-1.81
629.29,-0.39
630.46,1.78
631.64,2.19
632.82,1.52
634.00,0.85
635.18,-0.25
636.36,-0.16
637.54,0.49
638.71,0.97
639.89,1.00
641.07,0.47
642.25,-0.27
643.43,-0.55
644.61,-0.28
645.79,0.05
646.96,0.34
648.14,0.87
649.32,1.28
650.50,1.08
651.68,0.67
652.86,0.65
654.04,1.09
655.21,2.00
656.39,3.23
657.57,3.84
658.75,3.23
659.93,2.86
661.11,2.50
662.29,2.59
663.46,2.92
664.64,3.20
665.82,3.92
667.00,4.68
668.18,4.85
669.36,4.87
670.54,5.21
671.71,5.67
672.89,6.20
674.07,7.02
675.25,7.93
676.43,8.37
677.61,7.88
678.79,6.59
679.96,5.41
681.14,5.24
682.32,5.77
683.50,5.94
684.68,5.55
685.86,5.55
687.04,5.55
688.21,6.22
689.39,6.85
690.57,7.36
691.75,8.21
692.93,9.10
694.11,9.33
695.29,8.66
696.46,7.57
697.64,6.94
698.82,7.39
700.00,8.69
701.00,9.78
702.98,9.83
704.96,9.28
706.94,9.02
708.92,8.67
710.90,7.66
712.88,6.77
714.86,6.75
716.84,6.97
718.82,6.77
720.80,6.59
722.78,6.42
724.76,6.45
726.74,6.87
728.72,7.19
730.70,7.11
732.68,6.89
734.66,6.58
736.64,5.92
738.62,5.28
740.60,5.39
742.58,6.07
744.56,6.65
746.54,7.26
748.52,8.18
750.50,8.73
752.48,8.25
754.46,7.07
756.44,5.93
758.42,5.34
760.40,5.43
762.38,5.76
764.36,5.74
766.34,5.56
768.32,5.38
770.30,4.99
772.28,4.60
774.26,4.02
776.24,3.27
778.22,2.68
780.20,2.38
782.18,2.05
784.16,1.66
786.14,1.96
788.12,3.46
790.10,5.27
792.08,5.65
794.06,4.10
796.04,2.24
798.02,1.55
800.00,1.72
801.00,2.15
803.36,2.91
805.71,3.74
808.07,3.96
810.43,3.71
812.79,3.46
815.14,2.63
817.50,1.82
819.86,1.13
822.21,0.77
824.57,1.17
826.93,2.33
829.29,3.55
831.64,4.17
834.00,3.91
836.36,2.98
838.71,2.27
841.07,2.37
843.43,3.03
845.79,3.42
848.14,3.06
850.50,2.58
852.86,2.90
855.21,3.72
857.57,4.00
859.93,3.62
862.29,3.17
864.64,3.01
867.00,2.86
869.36,2.47
871.71,1.92
874.07,1.25
876.43,0.42
878.79,-0.13
881.14,0.15
883.50,0.84
885.86,1.04
888.21,0.39
890.57,-0.68
892.93,-1.10
895.29,-0.63
897.64,-0.19
900.00,-0.27
901.00,-0.29
904.67,0.38
908.33,1.45
912.00,2.02
915.67,1.79
919.33,1.13
923.00,0.90
926.67,0.66
930.33,0.66
934.00,0.68
937.67,0.16
941.33,-0.67
945.00,-1.21
948.67,-1.31
952.33,-1.24
956.00,-1.59
959.67,-2.68
963.33,-3.75
967.00,-3.45
970.67,-1.81
974.33,-0.25
978.00,0.25
981.67,0.00
985.33,-0.29
989.00,-0.28
992.67,0.27
996.33,1.30
1000.00,2.20
1001.00,2.33
1006.10,2.03
1011.21,1.74
1016.31,1.13
1021.41,0.81
1026.51,0.42
1031.62,-0.19
1036.72,-0.83
1041.82,-1.42
1046.92,-1.74
1052.03,-1.59
1057.13,-1.30
1062.23,-1.05
1067.33,-0.75
1072.44,-0.55
1077.54,-0.60
1082.64,-0.71
1087.74,-0.75
1092.85,-0.80
1097.95,-1.05
1103.05,-1.75
1108.15,-2.36
1113.26,-1.88
1118.36,-0.77
1123.46,-0.66
1128.56,-0.55
1133.67,-1.24
1138.77,-1.54
1143.87,-1.24
1148.97,-1.13
1154.08,-1.15
1159.18,-0.87
1164.28,-0.63
1169.38,-0.69
1174.49,-0.98
1179.59,-1.54
1184.69,-1.91
1189.79,-1.79
1194.90,-1.90
1200.00,-2.23
1201.00,-1.70
1210.06,-0.38
1219.12,0.41
1228.18,-0.06
1237.24,-1.21
1246.30,-1.84
1255.36,-1.71
1264.42,-1.57
1273.48,-1.14
1282.55,-1.03
1291.61,-1.12
1300.67,-1.23
1309.73,-1.36
1318.79,-1.61
1327.85,-1.81
1336.91,-1.48
1345.97,-0.67
1355.03,-0.09
1364.09,-0.08
1373.15,-0.19
1382.21,-0.09
1391.27,-0.16
1400.33,-0.67
1409.39,-1.06
1418.45,-0.89
1427.52,-0.98
1436.58,-1.91
1445.64,-2.70
1454.70,-2.70
1463.76,-2.56
1472.82,-2.42
1481.88,-2.13
1490.94,-1.64
1500.00,-1.16
1501.00,-0.72
1510.24,0.15
1519.48,1.45
1528.72,2.25
1537.96,2.01
1547.20,1.25
1556.44,0.45
1565.69,-0.36
1574.93,-0.99
1584.17,-1.04
1593.41,-0.54
1602.65,0.35
1611.89,1.92
1621.13,3.99
1630.37,5.10
1639.61,4.02
1648.85,1.52
1658.09,0.46
1667.33,-0.60
1676.57,-1.23
1685.81,-0.62
1695.06,0.05
1704.30,0.12
1713.54,-0.12
1722.78,-0.18
1732.02,0.13
1741.26,0.91
1750.50,1.83
1759.74,2.15
1768.98,1.72
1778.22,1.35
1787.46,1.68
1796.70,2.57
1805.94,3.33
1815.19,3.50
1824.43,3.21
1833.67,2.72
1842.91,2.32
1852.15,2.25
1861.39,2.35
1870.63,2.25
1879.87,2.14
1889.11,1.60
1898.35,0.99
1907.59,0.67
1916.83,1.00
1926.07,1.97
1935.31,2.97
1944.56,3.25
1953.80,2.84
1963.04,2.28
1972.28,1.73
1981.52,1.44
1990.76,1.84
2000.00,2.72
2001.00,3.30
2018.22,3.23
2035.45,2.69
2052.67,2.08
2069.90,1.92
2087.12,2.28
2104.34,2.73
2121.57,3.04
2138.79,3.15
2156.02,3.26
2173.24,3.43
2190.47,3.67
2207.69,4.00
2224.91,4.15
2242.14,3.96
2259.36,3.90
2276.59,4.76
2293.81,6.57
2311.03,8.15
2328.26,8.09
2345.48,6.46
2362.71,5.01
2379.93,4.74
2397.16,4.82
2414.38,4.59
2431.60,4.26
2448.83,3.62
2466.05,2.76
2483.28,2.73
2500.50,3.57
2517.72,3.81
2534.95,4.05
2552.17,3.69
2569.40,3.08
2586.62,2.77
2603.84,2.72
2621.07,2.60
2638.29,2.47
2655.52,2.85
2672.74,3.72
2689.97,4.43
2707.19,4.44
2724.41,3.94
2741.64,3.41
2758.86,3.17
2776.09,3.36
2793.31,3.75
2810.53,4.16
2827.76,4.69
2844.98,4.91
2862.21,4.47
2879.43,4.17
2896.66,4.30
2913.88,4.23
2931.10,4.16
2948.33,3.86
2965.55,3.89
2982.78,3.98
3000.00,3.83
3001.00,3.58
3025.99,3.39
3050.98,3.19
3075.98,3.01
3100.97,3.12
3125.96,3.47
3150.95,3.69
3175.94,3.68
3200.93,3.78
3225.93,4.20
3250.92,4.81
3275.91,5.28
3300.90,5.37
3325.89,5.40
3350.88,5.92
3375.87,6.48
3400.87,6.46
3425.86,6.45
3450.85,6.32
3475.84,6.20
3500.83,5.23
3525.82,3.57
3550.82,2.27
3575.81,2.09
3600.80,3.26
3625.79,5.09
3650.78,6.30
3675.77,6.35
3700.77,5.52
3725.76,4.35
3750.75,3.18
3775.74,2.32
3800.73,2.15
3825.73,2.43
3850.72,2.35
3875.71,1.72
3900.70,1.32
3925.69,1.65
3950.68,2.19
3975.68,2.17
4000.67,2.15
4025.66,1.27
4050.65,0.04
4075.64,-0.75
4100.63,-0.57
4125.62,0.32
4150.62,1.32
4175.61,2.27
4200.60,3.49
4225.59,4.85
4250.58,5.81
4275.58,6.33
4300.57,6.55
4325.56,6.19
4350.55,5.14
4375.54,4.00
4400.53,3.06
4425.52,1.83
4450.52,0.52
4475.51,0.44
4500.50,1.70
4525.49,2.76
4550.48,2.91
4575.48,3.06
4600.47,3.47
4625.46,3.94
4650.45,3.56
4675.44,2.78
4700.43,2.81
4725.42,3.28
4750.42,2.79
4775.41,1.65
4800.40,1.61
4825.39,2.95
4850.38,4.28
4875.37,4.75
4900.37,4.53
4925.36,3.82
4950.35,2.62
4975.34,1.07
5000.33,-0.30
5025.33,-1.12
5050.32,-1.30
5075.31,-0.77
5100.30,-0.09
5125.29,0.59
5150.28,2.60
5175.27,4.57
5200.27,5.51
5225.26,5.12
5250.25,4.46
5275.24,5.07
5300.23,7.01
5325.23,8.88
5350.22,9.97
5375.21,10.77
5400.20,11.69
5425.19,12.55
5450.18,13.07
5475.17,13.63
5500.17,15.10
5525.16,17.49
5550.15,19.88
5575.14,21.83
5600.13,23.80
5625.12,26.80
5650.12,33.00
5675.11,39.87
5700.10,46.74
5725.09,75.83
5750.08,132.95
5775.08,235.06
5800.07,399.09
5825.06,632.94
5850.05,926.55
5875.04,1250.84
5900.03,1563.69
5925.02,1818.14
5950.02,1971.69
5975.01,1996.30
6000.00,1888.08
6024.79,1670.97
6049.64,1388.47
6074.48,1087.31
6099.32,804.25
6124.16,562.11
6149.01,371.67
6173.85,233.84
6198.69,141.93
6223.53,113.51
6248.38,85.09
6273.22,51.87
6298.06,33.31
6322.90,23.76
6347.75,19.32
6372.59,17.09
6397.43,15.76
6422.27,14.95
6447.12,14.07
6471.96,12.82
6496.80,11.45
6521.65,10.15
6546.49,9.21
6571.33,9.02
6596.17,9.27
6621.02,9.26
6645.86,8.82
6670.70,8.09
6695.54,7.07
6720.39,5.91
6745.23,4.96
6770.07,4.41
6794.91,4.19
6819.76,3.96
6844.60,3.35
6869.44,3.08
6894.28,3.44
6919.13,3.85
6943.97,3.83
6968.81,3.32
6993.65,2.25
7018.50,0.83
7043.34,-0.50
7068.18,-1.40
7093.02,-1.84
7117.87,-1.86
7142.71,-1.84
7167.55,-2.48
7192.39,-3.42
7217.24,-3.37
7242.08,-2.34
7266.92,-1.70
7291.77,-2.09
7316.61,-2.84
7341.45,-3.04
7366.29,-3.23
7391.14,-3.33
7415.98,-3.55
7440.82,-4.03
7465.66,-4.52
7490.51,-4.58
7515.35,-4.10
7540.19,-3.66
7565.03,-4.05
7589.88,-4.71
7614.72,-4.24
7639.56,-3.16
7664.40,-3.28
7689.25,-4.30
7714.09,-4.43
7738.93,-3.63
7763.77,-3.29
7788.62,-3.82
7813.46,-4.27
7838.30,-3.94
7863.14,-3.58
7887.99,-3.63
7912.83,-3.19
7937.67,-2.74
7962.51,-0.58
7987.36,0.71
8012.20,0.10
8037.04,-1.01
8061.89,-1.63
8086.73,-2.21
8111.57,-2.96
8136.41,-3.20
8161.26,-2.26
8186.10,-0.63
8210.94,0.35
8235.78,0.21
8260.63,-0.34
8285.47,-1.12
8310.31,-2.57
8335.15,-3.93
8360.00,-3.89
8384.84,-2.62
8409.68,-1.42
8434.52,-0.90
8459.37,-0.78
8484.21,-0.81
8509.05,-0.84
8533.89,-1.20
8558.74,-1.65
8583.58,-1.75
8608.42,-1.37
8633.26,-0.94
8658.11,-1.06
8682.95,-1.94
8707.79,-2.75
8732.63,-2.53
8757.48,-1.62
8782.32,-1.20
8807.16,-1.73
8832.00,-2.77
8856.85,-3.64
8881.69,-4.09
8906.53,-4.02
8931.37,-3.11
8956.22,-1.69
8981.06,-0.74
9005.90,-0.58
9030.75,-0.71
9055.59,-0.85
9080.43,-1.31
9105.27,-1.71
9130.12,-1.55
9154.96,-1.07
9179.80,-1.11
9204.64,-1.93
9229.49,-2.86
9254.33,-3.04
9279.17,-1.94
9304.01,-0.44
9328.86,-0.24
9353.70,-1.54
9378.54,-2.44
9403.38,-1.58
9428.23,-0.16
9453.07,0.02
9477.91,-0.82
9502.75,-1.54
9527.60,-1.84
9552.44,-1.99
9577.28,-2.13
9602.12,-2.17
9626.97,-2.21
9651.81,-2.38
9676.65,-2.93
9701.50,-3.48
9726.34,-3.06
9751.18,-1.51
9776.02,0.02
9800.87,0.51
9825.71,-0.07
9850.55,-1.17
9875.39,-1.95
9900.24,-1.87
9925.08,-1.43
9949.92,-1.21
9974.76,-0.82
9999.61,-0.12
10024.45,0.19
10049.29,0.07
10074.13,0.03
10098.98,-0.28
10123.82,-1.40
10148.66,-2.06
10173.50,-2.72
10198.35,-3.44
10223.19,-3.78
10248.03,-4.19
10272.87,-4.41
10297.72,-4.25
10322.56,-4.17
10347.40,-4.30
10372.25,-4.27
10397.09,-4.03
10421.93,-3.56
10446.77,-2.67
10471.62,-1.61
10496.46,-0.97
10521.30,-1.13
10546.14,-1.94
10570.99,-2.71
10595.83,-2.58
10620.67,-1.63
10645.51,-0.97
10670.36,-1.13
10695.20,-1.36
10720.04,-1.32
10744.88,-1.29
10769.73,-1.44
10794.57,-2.15
10819.41,-2.99
10844.25,-3.41
10869.10,-3.24
10893.94,-2.83
10918.78,-2.51
10943.62,-2.08
10968.47,-1.44
10993.31,-0.82
11018.15,-0.68
11043.00,-1.41
11067.84,-2.55
11092.68,-3.29
11117.52,-3.48
11142.37,-2.88
11167.21,-1.45
11192.05,-0.40
11216.89,-0.63
11241.74,-1.26
11266.58,-1.18
11291.42,-0.89
11316.26,-0.60
11341.11,-0.43
11365.95,-0.76
11390.79,-0.59
11415.63,0.61
11440.48,2.04
11465.32,2.82
11490.16,3.11
11515.00,3.28
11539.85,3.21
11564.69,2.74
11589.53,1.80
11614.37,0.53
11639.22,-0.12
11664.06,0.39
11688.90,1.10
11713.74,1.02
11738.59,0.39
11763.43,-0.33
11788.27,-1.09
11813.12,-1.95
11837.96,-2.33
11862.80,-2.70
11887.64,-2.92
11912.49,-2.45
11937.33,-1.55
11962.17,-0.78
11987.01,-0.81
12011.86,-1.56
12036.70,-2.27
12061.54,-2.22
12086.38,-1.00
12111.23,1.03
12136.07,2.75
12160.91,3.59
12185.75,3.93
12210.60,4.15
12235.44,4.12
12260.28,3.53
12285.12,2.48
12309.97,1.32
12334.81,0.17
12359.65,-0.58
12384.49,-0.46
12409.34,-0.22
12434.18,0.01
12459.02,0.07
12483.86,-0.01
12508.71,0.45
12533.55,1.46
12558.39,2.20
12583.24,1.73
12608.08,0.15
12632.92,-1.90
12657.76,-3.92
12682.61,-4.99
12707.45,-4.59
12732.29,-3.71
12757.13,-3.45
12781.98,-3.45
12806.82,-2.99
12831.66,-2.01
12856.50,-0.92
12881.35,-0.39
12906.19,-0.57
12931.03,-0.64
12955.87,-0.43
12980.72,-0.22
13005.56,-0.36
13030.40,-1.45
13055.24,-2.09
13080.09,-1.51
13104.93,-1.03
13129.77,-1.83
13154.61,-3.33
13179.46,-4.45
13204.30,-4.67
13229.14,-3.69
13253.98,-2.06
13278.83,-1.31
13303.67,-1.72
13328.51,-2.00
13353.35,-1.73
13378.20,-1.56
13403.04,-1.25
13427.88,-0.14
13452.73,0.87
13477.57,0.44
13502.41,-0.67
13527.25,-0.66
13552.10,-0.64
13576.94,0.33
13601.78,0.70
13626.62,0.23
13651.47,-0.35
13676.31,-0.75
13701.15,-1.21
13725.99,-1.99
13750.84,-2.75
13775.68,-2.61
13800.52,-1.54
13825.36,-0.52
13850.21,-0.08
13875.05,0.32
13899.89,1.02
13924.73,1.24
13949.58,0.35
13974.42,-1.09
13999.26,-2.10
14024.10,-2.23
14048.95,-2.05
14073.79,-2.66
14098.63,-3.24
14123.47,-3.82
14148.32,-4.10
14173.16,-2.99
14198.00,-1.52
14222.85,-0.93
14247.69,-1.48
14272.53,-2.45
14297.37,-2.71
14322.22,-1.81
14347.06,-0.57
14371.90,-0.06
14396.74,-0.29
14421.59,-0.81
14446.43,-1.57
14471.27,-2.72
14496.11,-3.79
14520.96,-4.22
14545.80,-3.98
14570.64,-3.58
14595.48,-3.37
14620.33,-3.06
14645.17,-2.55
14670.01,-2.05
14694.85,-0.75
14719.70,-0.19
14744.54,-0.14
14769.38,0.27
14794.22,0.70
14819.07,0.36
14843.91,-0.48
14868.75,-1.03
14893.59,-1.30
14918.44,-1.80
14943.28,-2.53
14968.12,-3.13
14992.97,-3.30
15017.81,-2.88
15042.65,-2.08
15067.49,-1.69
15092.34,-2.08
15117.18,-2.38
15142.02,-1.82
15166.86,-1.11
15191.71,-1.18
15216.55,-1.43
15241.39,-1.68
15266.23,-1.74
15291.08,-1.29
15315.92,-1.26
15340.76,-2.26
15365.60,-3.49
15390.45,-3.91
15415.29,-3.82
15440.13,-3.98
15464.97,-4.02
15489.82,-3.35
15514.66,-2.49
15539.50,-2.16
15564.34,-1.95
15589.19,-1.09
15614.03,0.01
15638.87,0.12
15663.71,-1.04
15688.56,-2.17
15713.40,-2.06
15738.24,-1.35
15763.08,-1.43
15787.93,-1.51
15812.77,-2.68
15837.61,-3.87
15862.46,-4.32
15887.30,-4.17
15912.14,-4.01
15936.98,-3.90
15961.83,-3.48
15986.67,-3.14
16011.51,-3.45
16036.35,-4.12
16061.20,-4.40
16086.04,-3.78
16110.88,-2.44
16135.72,-1.45
16160.57,-1.81
16185.41,-2.94
16210.25,-3.25
16235.09,-2.58
16259.94,-2.39
16284.78,-3.48
16309.62,-4.77
16334.46,-4.67
16359.31,-4.58
16384.15,-3.05
16408.99,-1.92
16433.84,-2.03
16458.68,-2.71
16483.52,-3.14
16508.36,-3.27
16533.21,-3.67
16558.05,-4.60
16582.89,-5.13
16607.73,-4.16
16632.58,-1.85
16657.42,0.31
16682.26,0.93
16707.10,0.07
16731.95,-1.32
16756.79,-2.63
16781.63,-3.46
16806.47,-3.19
16831.32,-2.01
16856.16,-1.04
16881.00,-0.91
16905.84,-1.18
16930.69,-1.44
16955.53,-2.29
16980.37,-2.62
17005.21,-1.62
17030.06,0.05
17054.90,0.94
17079.74,0.62
17104.58,-0.42
17129.43,-1.63
17154.27,-2.68
17179.11,-3.18
17203.96,-2.62
17228.80,-0.95
17253.64,0.40
17278.48,-0.03
17303.33,-1.28
17328.17,-1.78
17353.01,-1.81
17377.85,-1.89
17402.70,-1.39
17427.54,-0.15
17452.38,0.27
17477.22,0.69
17502.07,0.10
17526.91,-1.29
17551.75,-1.87
17576.59,-1.51
17601.44,-1.33
17626.28,-1.75
17651.12,-2.78
17675.96,-3.92
17700.81,-3.62
17725.65,-1.58
17750.49,0.00
17775.33,-1.11
17800.18,-2.34
17825.02,-2.43
17849.86,-1.16
17874.71,0.00
17899.55,-0.23
17924.39,-1.40
17949.23,-2.44
17974.07,-3.16
17998.92,-3.59
18023.76,-3.61
18048.60,-3.62
18073.45,-3.32
18098.29,-2.75
18123.13,-1.95
18147.97,-1.39
18172.82,-1.68
18197.66,-2.66
18222.50,-3.38
18247.34,-3.25
18272.19,-2.39
18297.03,-1.16
18321.87,-0.32
18346.71,-0.38
18371.56,-0.83
18396.40,-1.03
18421.24,-1.19
18446.08,-1.63
18470.93,-2.19
18495.77,-2.72
18520.61,-3.02
18545.46,-2.91
