Size (bp),Intensity
0.58,1130.76
1.00,1113.34
2.00,871.16
2.42,551.13
2.84,293.99
3.26,145.81
3.68,112.70
4.10,79.59
4.52,55.09
4.94,47.74
5.36,46.64
5.79,47.00
6.21,47.14
6.63,46.45
7.05,43.97
7.47,39.12
7.89,32.72
8.31,26.25
8.73,20.78
9.15,16.65
9.57,14.00
9.99,13.40
10.41,12.80
10.83,12.33
11.25,11.67
11.67,10.92
12.09,10.77
12.52,11.08
12.94,10.91
13.36,9.94
13.78,8.89
14.20,7.97
14.62,6.72
15.04,5.49
15.46,4.96
15.88,5.01
16.30,5.07
16.72,5.57
17.14,6.30
17.56,6.83
17.98,6.85
18.40,6.30
18.82,5.21
19.24,4.24
19.67,4.41
20.09,5.49
20.51,6.01
20.93,5.10
21.35,3.63
21.77,3.01
22.19,3.12
22.61,3.23
23.03,3.40
23.45,3.31
23.87,2.85
24.29,1.89
24.71,1.29
25.13,2.03
25.55,3.39
25.97,4.04
26.39,3.76
26.82,3.17
27.24,2.94
27.66,3.25
28.08,3.30
28.50,3.36
28.92,2.69
29.34,2.33
29.76,3.41
30.18,5.16
30.60,6.45
31.02,6.77
31.44,5.53
31.86,3.46
32.28,2.83
32.70,4.72
33.12,7.46
33.55,8.78
33.97,8.72
34.39,8.86
34.81,8.99
35.23,9.77
35.65,9.51
36.07,8.04
36.49,7.29
36.91,8.43
37.33,10.27
37.75,11.02
38.17,10.23
38.59,8.49
39.01,6.73
39.43,5.63
39.85,5.20
40.27,5.25
40.70,5.31
41.12,6.28
41.54,7.79
41.96,8.56
42.38,7.79
42.80,6.45
43.22,6.40
43.64,8.28
44.06,10.70
44.48,12.20
44.90,12.65
45.32,12.39
45.74,11.31
46.16,9.33
46.58,8.25
47.00,7.17
47.42,6.22
47.85,6.72
48.27,7.34
48.69,7.50
49.11,8.13
49.53,9.38
49.95,9.89
50.37,9.14
50.79,8.52
51.21,9.61
51.63,12.61
52.05,16.36
52.47,17.90
52.89,19.44
53.31,21.07
53.73,21.25
54.15,20.43
54.58,18.96
55.00,17.41
55.42,16.26
55.84,15.02
56.26,13.46
56.68,12.51
57.10,12.60
57.52,12.74
57.94,11.91
58.36,10.40
58.78,9.84
59.20,9.27
59.62,9.09
60.04,9.65
60.46,10.53
60.88,11.07
61.30,10.93
61.73,10.75
62.15,11.47
62.57,13.11
62.99,14.72
63.41,15.20
63.83,14.23
64.25,12.51
64.67,11.65
65.09,10.80
65.51,9.17
65.93,7.80
66.35,7.23
66.77,7.73
67.19,8.84
67.61,9.66
68.03,9.63
68.45,9.20
68.88,9.02
69.30,8.94
69.72,8.49
70.14,7.44
70.56,6.83
70.98,6.22
71.40,5.74
71.82,6.27
72.24,6.90
72.66,6.68
73.08,5.91
73.50,5.47
73.92,5.52
74.34,5.71
74.76,6.18
75.18,7.09
75.61,7.51
76.03,6.60
76.45,5.26
76.87,5.02
77.29,4.77
77.71,5.04
78.13,5.34
78.55,5.49
78.97,5.50
79.39,5.20
79.81,4.86
80.23,4.92
80.65,5.32
81.07,5.75
81.49,6.04
81.91,6.03
82.33,5.65
82.76,5.44
83.18,5.22
83.60,4.86
84.02,4.69
84.44,5.02
84.86,5.72
85.28,6.31
85.70,6.63
86.12,6.47
86.54,5.49
86.96,4.08
87.38,3.36
87.80,3.58
88.22,3.75
88.64,3.05
89.06,2.44
89.48,1.83
89.91,1.29
90.33,2.08
90.75,3.52
91.17,4.49
91.59,4.83
92.01,4.87
92.43,4.63
92.85,4.58
93.27,5.09
93.69,5.23
94.11,4.34
94.53,3.35
94.95,3.26
95.37,3.17
95.79,3.42
96.21,3.62
96.64,4.09
97.06,5.26
97.48,6.75
97.90,7.73
98.32,8.06
98.74,8.23
99.16,8.53
99.58,8.70
100.00,8.54
101.00,8.20
101.52,7.89
102.04,7.82
102.56,7.75
103.08,7.86
103.61,8.30
104.13,8.80
104.65,8.97
105.17,9.25
105.69,9.78
106.21,9.45
106.73,8.27
107.25,7.74
107.77,8.03
108.29,8.11
108.82,8.14
109.34,8.57
109.86,8.99
110.38,10.05
110.90,10.00
111.42,9.10
111.94,8.68
112.46,9.07
112.98,9.43
113.51,9.07
114.03,8.71
114.55,9.71
115.07,11.40
115.59,11.60
116.11,10.05
116.63,8.52
117.15,8.38
117.67,8.24
118.19,8.76
118.72,8.85
119.24,8.21
119.76,7.64
120.28,7.75
120.80,8.31
121.32,8.45
121.84,7.43
122.36,5.70
122.88,4.59
123.41,4.58
123.93,4.65
124.45,4.40
124.97,4.14
125.49,3.75
126.01,4.34
126.53,5.69
127.05,6.61
127.57,6.22
128.09,5.16
128.62,4.94
129.14,6.22
129.66,8.16
130.18,9.22
130.70,8.89
131.22,7.85
131.74,6.43
132.26,5.71
132.78,4.99
133.31,4.85
133.83,6.38
134.35,7.83
134.87,8.15
135.39,8.55
135.91,9.77
136.43,10.52
136.95,10.08
137.47,9.62
137.99,9.98
138.52,10.48
139.04,10.41
139.56,10.27
140.08,10.12
140.60,10.26
141.12,11.01
141.64,11.88
142.16,12.32
142.68,11.98
143.21,10.64
143.73,8.89
144.25,8.12
144.77,8.95
145.29,10.70
145.81,12.31
146.33,12.97
146.85,12.78
147.37,12.76
147.89,12.75
148.42,13.25
148.94,13.59
149.46,13.56
149.98,13.92
150.50,15.13
151.02,16.41
151.54,16.49
152.06,15.42
152.58,15.16
153.11,17.05
153.63,20.21
154.15,23.21
154.67,24.39
155.19,25.58
155.71,27.14
156.23,27.39
156.75,26.32
157.27,25.13
157.79,25.30
158.32,27.19
158.84,29.85
159.36,31.76
159.88,32.30
160.40,31.99
160.92,31.15
161.44,30.21
161.96,30.13
162.48,30.43
163.01,30.73
163.53,30.51
164.05,29.03
164.57,27.54
165.09,27.15
165.61,27.56
166.13,28.00
166.65,28.04
167.17,27.37
167.69,26.22
168.22,25.75
168.74,26.65
169.26,28.28
169.78,29.07
170.30,29.86
170.82,31.22
171.34,32.17
171.86,32.48
172.38,32.34
172.91,32.39
173.43,33.16
173.95,34.44
174.47,35.89
174.99,37.77
175.51,40.13
176.03,42.31
176.55,43.71
177.07,44.60
177.59,45.40
178.12,46.21
178.64,49.24
179.16,53.07
179.68,56.88
180.20,60.44
180.72,63.68
181.24,66.44
181.76,69.22
182.28,73.12
182.81,77.87
183.33,81.88
183.85,85.12
184.37,88.99
184.89,91.37
185.41,93.74
185.93,98.81
186.45,104.10
186.97,108.71
187.49,111.14
188.02,111.99
188.54,113.64
189.06,117.09
189.58,121.36
190.10,125.22
190.62,128.75
191.14,132.98
191.66,138.33
192.18,143.64
192.71,145.40
193.23,147.15
193.75,148.87
194.27,151.30
194.79,156.25
195.31,162.78
195.83,169.41
196.35,175.69
196.87,181.45
197.39,186.61
197.92,191.64
198.44,197.58
198.96,204.97
199.48,213.28
200.00,217.57
201.00,221.85
201.59,230.11
202.17,237.44
202.76,244.43
203.34,252.90
203.93,263.35
204.51,274.36
205.10,284.65
205.69,293.98
206.27,302.60
206.86,311.10
207.44,320.54
208.03,331.37
208.62,342.68
209.20,348.03
209.79,353.38
210.37,363.15
210.96,372.51
211.54,382.37
212.13,392.70
212.72,402.60
213.30,411.82
213.89,421.12
214.47,431.50
215.06,443.06
215.64,455.17
216.23,467.73
216.82,481.22
217.40,488.51
217.99,495.81
218.57,510.70
219.16,524.36
219.75,536.72
220.33,549.50
220.92,563.47
221.50,577.59
222.09,590.88
222.67,603.36
223.26,615.56
223.85,627.72
224.43,639.77
225.02,652.07
225.60,658.70
226.19,665.33
226.78,679.58
227.36,694.36
227.95,709.79
228.53,726.40
229.12,744.61
229.70,764.54
230.29,785.91
230.88,808.04
231.46,829.40
232.05,848.63
232.63,866.80
233.22,886.38
233.80,907.40
234.39,917.34
234.98,927.29
235.56,944.27
236.15,958.99
236.73,972.63
237.32,984.99
237.91,996.21
238.49,1007.93
239.08,1020.81
239.66,1034.28
240.25,1048.81
240.83,1065.15
241.42,1082.72
242.01,1100.73
242.59,1109.85
243.18,1118.97
243.76,1136.22
244.35,1151.06
244.93,1164.72
245.52,1179.58
246.11,1195.05
246.69,1208.98
247.28,1221.80
247.86,1235.81
248.45,1253.24
249.04,1275.03
249.62,1299.24
250.21,1321.88
250.79,1340.14
251.38,1346.50
251.96,1352.86
252.55,1359.41
253.14,1360.86
253.72,1360.89
254.31,1362.60
254.89,1366.00
255.48,1370.21
256.07,1374.83
256.65,1379.44
257.24,1384.30
257.82,1389.91
258.41,1394.77
258.99,1396.34
259.58,1395.14
260.17,1393.95
260.75,1389.26
261.34,1384.71
261.92,1382.24
262.51,1382.68
263.09,1385.64
263.68,1390.23
264.27,1396.64
264.85,1406.20
265.44,1419.06
266.02,1432.86
266.61,1444.57
267.20,1452.62
267.78,1457.33
268.37,1458.66
268.95,1460.00
269.54,1461.14
270.12,1459.94
270.71,1455.72
271.30,1449.61
271.88,1444.62
272.47,1442.83
273.05,1442.73
273.64,1442.22
274.22,1442.11
274.81,1443.49
275.40,1445.06
275.98,1446.13
276.57,1446.79
277.15,1447.46
277.74,1448.46
278.33,1447.82
278.91,1445.79
279.50,1442.77
280.08,1438.85
280.67,1435.94
281.25,1436.22
281.84,1438.88
282.43,1442.21
283.01,1446.74
283.60,1453.91
284.18,1463.98
284.77,1476.20
285.36,1482.81
285.94,1489.43
286.53,1501.38
287.11,1507.93
287.70,1505.26
288.28,1493.48
288.87,1476.67
289.46,1459.37
290.04,1444.82
290.63,1435.03
291.21,1429.40
291.80,1425.15
292.38,1421.12
292.97,1418.92
293.56,1419.22
294.14,1419.53
294.73,1421.19
295.31,1421.61
295.90,1420.92
296.49,1420.97
297.07,1423.06
297.66,1426.94
298.24,1430.64
298.83,1432.48
299.41,1433.20
300.00,1434.30
301.00,1435.95
301.70,1438.66
302.39,1444.14
303.09,1448.53
303.79,1452.92
304.49,1463.52
305.18,1474.75
305.88,1485.71
306.58,1493.57
307.27,1495.15
307.97,1490.61
308.67,1483.16
309.37,1475.43
310.06,1468.68
310.76,1463.63
311.46,1459.30
312.15,1453.43
312.85,1449.28
313.55,1445.13
314.25,1434.62
314.94,1421.35
315.64,1405.31
316.34,1388.32
317.04,1372.38
317.73,1357.84
318.43,1344.06
319.13,1331.14
319.82,1320.00
320.52,1311.00
321.22,1304.03
321.92,1298.89
322.61,1294.15
323.31,1291.05
324.01,1287.95
324.70,1279.61
325.40,1269.22
326.10,1257.51
326.80,1245.66
327.49,1233.91
328.19,1222.37
328.89,1212.44
329.58,1205.22
330.28,1199.75
330.98,1194.49
331.68,1189.39
332.37,1184.91
333.07,1182.86
333.77,1180.82
334.46,1177.36
335.16,1175.07
335.86,1173.53
336.56,1172.91
337.25,1174.77
337.95,1179.36
338.65,1184.29
339.35,1187.05
340.04,1186.87
340.74,1184.12
341.44,1179.51
342.13,1173.66
342.83,1166.76
343.53,1162.25
344.23,1157.74
344.92,1146.26
345.62,1135.18
346.32,1127.37
347.01,1122.20
347.71,1118.32
348.41,1116.29
349.11,1117.21
349.80,1121.43
350.50,1128.23
351.20,1135.29
351.89,1139.25
352.59,1137.95
353.29,1135.10
353.99,1132.25
354.68,1124.75
355.38,1116.56
356.08,1107.12
356.77,1097.25
357.47,1088.51
358.17,1080.72
358.87,1072.97
359.56,1064.91
360.26,1056.34
360.96,1047.49
361.65,1038.91
362.35,1031.56
363.05,1026.33
363.75,1024.34
364.44,1022.35
365.14,1017.63
365.84,1012.03
366.54,1007.27
367.23,1003.97
367.93,1001.43
368.63,999.43
369.32,997.83
370.02,995.76
370.72,992.69
371.42,988.71
372.11,983.80
372.81,978.57
373.51,976.73
374.20,974.90
374.90,974.46
375.60,976.13
376.30,977.63
376.99,979.10
377.69,981.23
378.39,982.93
379.08,983.46
379.78,982.65
380.48,979.98
381.18,976.39
381.87,974.04
382.57,973.86
383.27,975.51
383.96,976.73
384.66,977.95
385.36,978.59
386.06,975.23
386.75,968.40
387.45,959.28
388.15,948.09
388.85,936.56
389.54,927.80
390.24,922.95
390.94,920.95
391.63,920.84
392.33,922.55
393.03,926.14
393.73,928.71
394.42,931.27
395.12,936.42
395.82,939.38
396.51,939.66
397.21,939.29
397.91,939.96
398.61,941.32
399.30,942.05
400.00,941.02
401.00,937.76
401.72,933.02
402.45,928.26
403.17,924.18
403.89,922.25
404.61,920.32
405.34,915.52
406.06,908.82
406.78,899.79
407.50,888.29
408.23,875.02
408.95,861.85
409.67,850.07
410.39,839.45
411.12,829.60
411.84,820.64
412.56,812.32
413.28,804.28
414.01,796.81
414.73,793.65
415.45,790.50
416.18,784.50
416.90,777.09
417.62,768.65
418.34,761.28
419.07,755.25
419.79,749.36
420.51,743.87
421.23,740.02
421.96,738.13
422.68,737.72
423.40,737.85
424.12,737.83
424.85,737.88
425.57,737.92
426.29,738.02
427.01,736.91
427.74,734.07
428.46,730.41
429.18,726.77
429.91,723.63
430.63,722.32
431.35,724.10
432.07,728.04
432.80,731.51
433.52,732.87
434.24,732.38
434.96,730.66
435.69,729.10
436.41,727.54
437.13,722.80
437.85,716.96
438.58,711.15
439.30,706.71
440.02,703.51
440.74,699.62
441.47,694.37
442.19,689.15
442.91,684.67
443.64,680.59
444.36,677.37
445.08,675.65
445.80,675.37
446.53,675.09
447.25,675.17
447.97,675.31
448.69,674.47
449.42,672.28
450.14,669.19
450.86,665.34
451.58,661.03
452.31,657.06
453.03,653.95
453.75,651.17
454.47,647.47
455.20,642.28
455.92,636.13
456.64,632.82
457.36,629.52
458.09,622.88
458.81,617.13
459.53,613.22
460.26,611.10
460.98,609.64
461.70,608.15
462.42,606.74
463.15,605.11
463.87,602.43
464.59,598.51
465.31,593.91
466.04,589.35
466.76,587.49
467.48,585.63
468.20,583.30
468.93,581.30
469.65,577.32
470.37,570.99
471.09,564.65
471.82,559.76
472.54,555.73
473.26,552.15
473.99,549.18
474.71,546.65
475.43,544.04
476.15,540.37
476.88,534.92
477.60,531.58
478.32,528.25
479.04,521.50
479.77,515.81
480.49,512.42
481.21,511.72
481.93,512.56
482.66,513.09
483.38,511.87
484.10,508.81
484.82,505.53
485.55,504.27
486.27,505.84
486.99,508.50
487.72,508.88
488.44,509.27
489.16,507.22
489.88,503.80
490.61,500.02
491.33,496.07
492.05,492.21
492.77,488.13
493.50,483.74
494.22,480.32
494.94,478.66
495.66,477.87
496.39,476.80
497.11,474.94
497.83,472.02
498.55,469.97
499.28,467.91
500.00,462.46
501.00,456.24
502.01,451.73
503.02,451.12
504.03,453.18
505.04,454.92
506.05,454.93
507.06,453.24
508.07,449.76
509.08,444.50
510.09,438.75
511.10,434.43
512.11,432.87
513.12,431.31
514.13,427.11
515.14,421.25
516.15,415.44
517.16,411.36
518.17,409.72
519.18,409.36
520.19,407.91
521.20,404.80
522.21,401.28
523.22,398.00
524.23,394.61
525.24,390.52
526.26,385.80
527.27,383.63
528.28,381.46
529.29,377.94
530.30,374.63
531.31,371.02
532.32,367.21
533.33,363.49
534.34,360.25
535.35,357.90
536.36,356.57
537.37,356.29
538.38,356.87
539.39,357.44
540.40,357.01
541.41,356.34
542.42,355.68
543.43,354.30
544.44,352.91
545.45,351.09
546.46,349.10
547.47,347.42
548.48,345.82
549.49,343.96
550.50,341.93
551.51,340.01
552.52,338.79
553.53,339.43
554.54,341.82
555.55,343.62
556.56,343.42
557.57,343.22
558.58,341.45
559.59,339.62
560.60,338.15
561.61,336.73
562.62,334.39
563.63,330.41
564.64,325.69
565.65,322.02
566.66,319.88
567.67,318.45
568.68,317.08
569.69,315.30
570.70,314.02
571.71,312.74
572.72,309.92
573.73,307.91
574.74,306.55
575.76,304.93
576.77,303.19
577.78,302.14
578.79,301.50
579.80,300.15
580.81,297.71
581.82,294.86
582.83,292.30
583.84,290.30
584.85,288.73
585.86,288.00
586.87,287.27
587.88,285.98
588.89,284.57
589.90,282.21
590.91,278.57
591.92,274.17
592.93,270.10
593.94,267.76
594.95,267.35
595.96,267.10
596.97,264.84
597.98,260.46
598.99,256.37
600.00,255.68
601.00,254.98
602.18,256.36
603.36,258.90
604.54,261.53
605.71,263.95
606.89,265.80
608.07,266.81
609.25,267.45
610.43,268.25
611.61,268.87
612.79,268.23
613.96,265.72
615.14,261.99
616.32,258.16
617.50,256.56
618.68,254.96
619.86,252.47
621.04,250.33
622.21,248.08
623.39,245.36
624.57,242.21
625.75,239.22
626.93,237.21
628.11,236.49
629.29,236.29
630.46,235.24
631.64,232.91
632.82,229.99
634.00,228.58
635.18,227.18
636.36,224.80
637.54,223.16
638.71,222.21
639.89,221.21
641.07,219.31
642.25,216.34
643.43,213.18
644.61,210.76
645.79,208.93
646.96,207.42
648.14,206.57
649.32,206.26
650.50,205.73
651.68,205.28
652.86,204.82
654.04,203.75
655.21,202.20
656.39,199.94
657.57,197.62
658.75,196.23
659.93,195.94
661.11,196.19
662.29,196.25
663.46,195.53
664.64,193.81
665.82,191.41
667.00,189.28
668.18,188.80
669.36,188.31
670.54,187.91
671.71,186.41
672.89,183.57
674.07,181.11
675.25,180.00
676.43,179.25
677.61,177.83
678.79,175.58
679.96,173.05
681.14,171.30
682.32,170.74
683.50,170.52
684.68,170.11
685.86,169.69
687.04,167.90
688.21,165.34
689.39,162.95
690.57,161.49
691.75,160.49
692.93,159.17
694.11,157.74
695.29,157.07
696.46,157.23
697.64,157.03
698.82,155.29
700.00,152.53
701.00,150.39
702.98,149.85
704.96,149.31
706.94,148.11
708.92,146.39
710.90,145.20
712.88,144.53
714.86,143.11
716.84,141.20
718.82,140.20
720.80,139.91
722.78,138.92
724.76,136.80
726.74,134.64
728.72,133.99
730.70,134.38
732.68,134.78
734.66,135.38
736.64,134.88
738.62,134.19
740.60,134.44
742.58,135.16
744.56,134.93
746.54,133.60
748.52,132.05
750.50,130.41
752.48,128.68
754.46,127.80
756.44,128.40
758.42,129.24
760.40,128.94
762.38,128.63
764.36,126.88
766.34,125.60
768.32,125.18
770.30,125.20
772.28,125.60
774.26,125.96
776.24,125.74
778.22,125.45
780.20,125.65
782.18,125.93
784.16,125.64
786.14,124.64
788.12,123.92
790.10,123.20
792.08,121.65
794.06,120.07
796.04,118.50
798.02,117.28
800.00,116.70
801.00,116.62
803.36,116.44
805.71,115.26
808.07,113.16
810.43,111.23
812.79,110.22
815.14,110.06
817.50,110.34
819.86,110.35
822.21,110.35
824.57,109.69
826.93,108.56
829.29,107.16
831.64,105.86
834.00,105.39
836.36,105.69
838.71,105.86
841.07,105.75
843.43,105.79
845.79,105.65
848.14,104.96
850.50,104.01
852.86,103.37
855.21,102.73
857.57,100.57
859.93,97.71
862.29,95.32
864.64,94.43
867.00,94.76
869.36,94.85
871.71,93.57
874.07,91.38
876.43,89.67
878.79,88.78
881.14,88.00
883.50,87.09
885.86,86.48
888.21,86.39
890.57,86.31
892.93,86.31
895.29,86.23
897.64,85.83
900.00,84.64
901.00,82.51
904.67,80.20
908.33,78.72
912.00,78.34
915.67,78.95
919.33,80.34
923.00,81.36
926.67,80.63
930.33,79.71
934.00,78.80
937.67,77.61
941.33,77.05
945.00,76.00
948.67,74.69
952.33,74.18
956.00,74.44
959.67,74.60
963.33,73.94
967.00,72.33
970.67,70.79
974.33,70.46
978.00,70.49
981.67,69.40
985.33,68.52
989.00,67.65
992.67,66.48
996.33,65.96
1000.00,65.46
1001.00,64.52
1006.10,63.20
1011.21,61.99
1016.31,61.49
1021.41,61.60
1026.51,61.34
1031.62,60.31
1036.72,59.60
1041.82,60.03
1046.92,60.46
1052.03,60.90
1057.13,61.18
1062.23,60.61
1067.33,59.81
1072.44,59.54
1077.54,59.89
1082.64,60.31
1087.74,60.22
1092.85,59.48
1097.95,58.44
1103.05,57.39
1108.15,56.33
1113.26,54.92
1118.36,53.09
1123.46,52.22
1128.56,51.35
1133.67,50.00
1138.77,48.99
1143.87,48.36
1148.97,47.89
1154.08,47.00
1159.18,45.89
1164.28,45.27
1169.38,45.07
1174.49,44.54
1179.59,43.29
1184.69,41.76
1189.79,40.47
1194.90,39.93
1200.00,39.38
1201.00,38.24
1210.06,37.21
1219.12,36.70
1228.18,36.63
1237.24,36.40
1246.30,35.84
1255.36,35.13
1264.42,33.85
1273.48,31.96
1282.55,30.60
1291.61,30.31
1300.67,30.28
1309.73,30.01
1318.79,29.94
1327.85,29.87
1336.91,29.95
1345.97,29.65
1355.03,28.62
1364.09,27.62
1373.15,27.84
1382.21,29.22
1391.27,30.55
1400.33,30.95
1409.39,30.16
1418.45,28.31
1427.52,26.36
1436.58,25.41
1445.64,25.42
1454.70,25.44
1463.76,25.49
1472.82,25.00
1481.88,24.13
1490.94,23.05
1500.00,22.11
1501.00,21.85
1510.24,22.13
1519.48,22.14
1528.72,21.65
1537.96,21.38
1547.20,21.97
1556.44,23.10
1565.69,23.88
1574.93,23.76
1584.17,23.63
1593.41,22.32
1602.65,20.32
1611.89,18.09
1621.13,16.57
1630.37,16.68
1639.61,18.10
1648.85,20.04
1658.09,22.15
1667.33,23.74
1676.57,23.70
1685.81,21.82
1695.06,19.15
1704.30,18.10
1713.54,17.04
1722.78,16.56
1732.02,17.72
1741.26,19.17
1750.50,19.56
1759.74,18.86
1768.98,17.87
1778.22,17.20
1787.46,16.91
1796.70,16.87
1805.94,17.31
1815.19,18.23
1824.43,18.91
1833.67,18.75
1842.91,18.28
1852.15,17.81
1861.39,16.24
1870.63,14.61
1879.87,13.80
1889.11,13.69
1898.35,13.75
1907.59,14.05
1916.83,14.55
1926.07,14.99
1935.31,15.50
1944.56,16.22
1953.80,16.61
1963.04,15.91
1972.28,15.12
1981.52,14.32
1990.76,13.10
2000.00,12.99
2001.00,13.73
2018.22,14.84
2035.45,15.65
2052.67,15.90
2069.90,16.46
2087.12,17.70
2104.34,18.45
2121.57,18.23
2138.79,18.23
2156.02,19.03
2173.24,19.57
2190.47,19.27
2207.69,18.96
2224.91,17.23
2242.14,14.82
2259.36,13.04
2276.59,13.59
2293.81,16.03
2311.03,17.56
2328.26,16.84
2345.48,15.75
2362.71,16.27
2379.93,17.89
2397.16,18.80
2414.38,18.05
2431.60,17.25
2448.83,16.45
2466.05,15.59
2483.28,15.85
2500.50,16.25
2517.72,16.38
2534.95,16.52
2552.17,16.78
2569.40,17.39
2586.62,18.35
2603.84,18.74
2621.07,18.16
2638.29,17.41
2655.52,16.65
2672.74,16.01
2689.97,15.37
2707.19,14.41
2724.41,14.99
2741.64,16.54
2758.86,17.79
2776.09,18.20
2793.31,17.79
2810.53,17.18
2827.76,16.87
2844.98,16.60
2862.21,16.18
2879.43,15.51
2896.66,14.49
2913.88,13.89
2931.10,14.08
2948.33,14.28
2965.55,14.86
2982.78,15.03
3000.00,15.11
3001.00,14.89
3025.99,14.22
3050.98,14.09
3075.98,15.17
3100.97,16.48
3125.96,16.81
3150.95,16.11
3175.94,15.22
3200.93,15.06
3225.93,15.38
3250.92,15.70
3275.91,16.13
3300.90,15.56
3325.89,14.44
3350.88,13.89
3375.87,14.61
3400.87,15.63
3425.86,15.36
3450.85,13.96
3475.84,12.52
3500.83,11.36
3525.82,10.69
3550.82,10.86
3575.81,11.38
3600.80,11.36
3625.79,11.33
3650.78,10.54
3675.77,9.49
3700.77,9.12
3725.76,10.26
3750.75,12.43
3775.74,13.90
3800.73,13.65
3825.73,12.42
3850.72,11.49
3875.71,11.43
3900.70,11.99
3925.69,12.46
3950.68,12.38
3975.68,12.29
4000.67,11.90
4025.66,11.82
4050.65,11.62
4075.64,10.92
4100.63,10.37
4125.62,10.58
4150.62,10.92
4175.61,10.48
4200.60,9.64
4225.59,9.61
4250.58,10.44
4275.58,10.84
4300.57,10.14
4325.56,9.58
4350.55,9.02
4375.54,8.41
4400.53,8.41
4425.52,8.35
4450.52,7.81
4475.51,7.57
4500.50,8.50
4525.49,9.64
4550.48,9.33
4575.48,8.38
4600.47,8.88
4625.46,10.68
4650.45,11.68
4675.44,11.38
4700.43,11.08
4725.42,10.26
4750.42,10.15
4775.41,10.08
4800.40,9.40
4825.39,8.26
4850.38,7.23
4875.37,6.99
4900.37,7.71
4925.36,8.49
4950.35,8.63
4975.34,8.73
5000.33,9.32
5025.33,9.75
5050.32,9.56
5075.31,9.37
5100.30,8.71
5125.29,8.50
5150.28,8.78
5175.27,9.54
5200.27,10.75
5225.26,11.61
5250.25,11.48
5275.24,11.03
5300.23,11.12
5325.23,11.48
5350.22,11.44
5375.21,11.22
5400.20,11.29
5425.19,11.36
5450.18,11.80
5475.17,12.41
5500.17,12.86
5525.16,12.30
5550.15,10.72
5575.14,9.44
5600.13,9.39
5625.12,10.64
5650.12,13.69
5675.11,19.96
5700.10,32.15
5725.09,55.71
5750.08,98.44
5775.08,133.24
5800.07,168.04
5825.06,270.40
5850.05,406.93
5875.04,570.51
5900.03,744.76
5925.02,906.59
5950.02,1030.23
5975.01,1094.71
6000.00,1091.12
6024.79,1023.27
6049.64,904.70
6074.48,755.89
6099.32,599.78
6124.16,527.72
6149.01,455.67
6173.85,335.54
6198.69,243.56
6223.53,177.81
6248.38,133.39
6273.22,104.72
6298.06,86.42
6322.90,73.84
6347.75,63.95
6372.59,55.81
6397.43,49.48
6422.27,44.66
6447.12,40.84
6471.96,37.69
6496.80,36.04
6521.65,34.39
6546.49,30.64
6571.33,27.83
6596.17,27.22
6621.02,27.74
6645.86,27.30
6670.70,25.53
6695.54,23.68
6720.39,22.61
6745.23,22.38
6770.07,22.57
6794.91,22.47
6819.76,21.61
6844.60,20.84
6869.44,20.07
6894.28,18.15
6919.13,16.18
6943.97,14.54
6968.81,13.49
6993.65,13.02
7018.50,13.13
7043.34,13.87
7068.18,14.87
7093.02,15.45
7117.87,15.04
7142.71,13.95
7167.55,13.45
7192.39,13.95
7217.24,14.00
7242.08,14.04
7266.92,12.84
7291.77,11.67
7316.61,12.07
7341.45,13.32
7366.29,13.56
7391.14,12.83
7415.98,12.72
7440.82,13.51
7465.66,14.03
7490.51,13.56
7515.35,12.61
7540.19,12.03
7565.03,11.88
7589.88,11.73
7614.72,10.97
7639.56,9.99
7664.40,9.75
7689.25,10.13
7714.09,9.92
7738.93,8.97
7763.77,8.66
7788.62,9.71
7813.46,10.99
7838.30,11.25
7863.14,10.54
7887.99,9.71
7912.83,9.49
7937.67,9.67
7962.51,9.85
7987.36,10.08
8012.20,9.37
8037.04,7.66
8061.89,6.30
8086.73,6.74
8111.57,8.49
8136.41,9.63
8161.26,9.70
8186.10,9.92
8210.94,10.26
8235.78,9.18
8260.63,7.03
8285.47,6.71
8310.31,6.39
8335.15,7.70
8360.00,8.26
8384.84,7.01
8409.68,5.76
8434.52,5.40
8459.37,5.23
8484.21,5.19
8509.05,5.51
8533.89,5.51
8558.74,4.91
8583.58,4.83
8608.42,5.91
8633.26,7.28
8658.11,7.58
8682.95,7.88
8707.79,7.16
8732.63,5.59
8757.48,4.81
8782.32,5.77
8807.16,6.86
8832.00,5.99
8856.85,4.03
8881.69,3.49
8906.53,4.68
8931.37,6.38
8956.22,7.94
8981.06,8.94
9005.90,9.02
9030.75,9.10
9055.59,8.74
9080.43,8.16
9105.27,7.54
9130.12,7.35
9154.96,7.63
9179.80,7.74
9204.64,7.51
9229.49,7.26
9254.33,7.13
9279.17,7.45
9304.01,8.59
9328.86,10.04
9353.70,10.81
9378.54,10.74
9403.38,10.68
9428.23,9.96
9453.07,8.67
9477.91,7.00
9502.75,5.56
9527.60,4.72
9552.44,4.58
9577.28,5.26
9602.12,6.56
9626.97,7.81
9651.81,8.25
9676.65,7.41
9701.50,5.75
9726.34,5.18
9751.18,4.61
9776.02,4.86
9800.87,6.09
9825.71,7.27
9850.55,7.63
9875.39,6.89
9900.24,5.21
9925.08,3.66
9949.92,3.52
9974.76,4.27
9999.61,4.66
10024.45,4.74
10049.29,4.93
10074.13,5.11
10098.98,5.30
10123.82,5.93
10148.66,6.19
10173.50,5.23
10198.35,3.51
10223.19,2.62
10248.03,3.30
10272.87,5.02
10297.72,6.81
10322.56,7.26
10347.40,5.59
10372.25,3.52
10397.09,3.32
10421.93,4.46
10446.77,4.84
10471.62,5.21
10496.46,5.18
10521.30,4.62
10546.14,3.86
10570.99,3.57
10595.83,3.82
10620.67,3.87
10645.51,3.48
10670.36,3.03
10695.20,2.80
10720.04,2.86
10744.88,3.14
10769.73,3.30
10794.57,3.07
10819.41,2.84
10844.25,1.73
10869.10,0.67
10893.94,0.03
10918.78,-0.64
10943.62,-0.87
10968.47,0.38
10993.31,2.35
11018.15,3.89
11043.00,5.44
11067.84,6.94
11092.68,7.10
11117.52,5.54
11142.37,3.44
11167.21,2.90
11192.05,2.36
11216.89,3.08
11241.74,4.65
11266.58,4.99
11291.42,3.49
11316.26,1.60
11341.11,0.76
11365.95,1.37
11390.79,3.27
11415.63,5.32
11440.48,5.76
11465.32,4.63
11490.16,3.70
11515.00,3.65
11539.85,3.60
11564.69,3.60
11589.53,3.29
11614.37,2.67
11639.22,1.34
11664.06,-0.60
11688.90,-1.63
11713.74,-0.49
11738.59,1.89
11763.43,3.37
11788.27,3.12
11813.12,2.14
11837.96,1.56
11862.80,1.55
11887.64,1.68
11912.49,1.81
11937.33,2.16
11962.17,2.67
11987.01,3.63
12011.86,4.58
12036.70,4.72
12061.54,4.36
12086.38,4.61
12111.23,5.58
12136.07,5.91
12160.91,4.61
12185.75,2.83
12210.60,2.18
12235.44,2.25
12260.28,2.32
12285.12,2.22
12309.97,2.05
12334.81,2.10
12359.65,1.73
12384.49,0.57
12409.34,-0.60
12434.18,-0.95
12459.02,-0.21
12483.86,1.62
12508.71,4.06
12533.55,5.81
12558.39,5.90
12583.24,4.87
12608.08,4.38
12632.92,3.89
12657.76,3.15
12682.61,2.03
12707.45,0.36
12732.29,-0.99
12757.13,-1.00
12781.98,0.06
12806.82,0.98
12831.66,1.08
12856.50,0.55
12881.35,-0.02
12906.19,-0.08
12931.03,0.55
12955.87,1.14
12980.72,1.73
13005.56,2.98
13030.40,3.72
13055.24,3.80
13080.09,3.34
13104.93,2.94
13129.77,3.44
13154.61,4.24
13179.46,3.74
13204.30,2.41
13229.14,2.27
13253.98,3.72
13278.83,5.57
13303.67,6.57
13328.51,6.25
13353.35,5.94
13378.20,4.08
13403.04,2.32
13427.88,1.33
13452.73,1.27
13477.57,2.43
13502.41,4.46
13527.25,6.32
13552.10,7.24
13576.94,6.98
13601.78,5.81
13626.62,4.52
13651.47,3.98
13676.31,4.25
13701.15,4.53
13725.99,5.64
13750.84,6.35
13775.68,6.51
13800.52,6.65
13825.36,6.90
13850.21,6.79
13875.05,6.14
13899.89,5.69
13924.73,6.12
13949.58,6.42
13974.42,5.26
13999.26,3.64
14024.10,3.22
14048.95,3.48
14073.79,3.73
14098.63,4.20
14123.47,4.44
14148.32,4.20
14173.16,3.31
14198.00,2.63
14222.85,2.78
14247.69,2.71
14272.53,1.49
14297.37,0.36
14322.22,0.47
14347.06,0.88
14371.90,0.74
14396.74,0.68
14421.59,0.61
14446.43,0.82
14471.27,0.99
14496.11,1.21
14520.96,2.13
14545.80,3.83
14570.64,4.82
14595.48,3.74
14620.33,1.88
14645.17,1.32
14670.01,1.98
14694.85,2.70
14719.70,3.10
14744.54,3.28
14769.38,3.22
14794.22,3.17
14819.07,2.64
14843.91,1.87
14868.75,1.45
14893.59,1.32
14918.44,0.92
14943.28,0.36
14968.12,-0.07
14992.97,-0.53
15017.81,-0.86
15042.65,-0.61
15067.49,0.03
15092.34,0.53
15117.18,0.58
15142.02,0.62
15166.86,0.56
15191.71,0.97
15216.55,2.06
15241.39,3.28
15266.23,3.75
15291.08,2.91
15315.92,1.17
15340.76,-0.15
15365.60,-0.22
15390.45,0.49
15415.29,1.08
15440.13,1.68
15464.97,2.49
15489.82,2.74
15514.66,2.99
15539.50,3.11
15564.34,3.30
15589.19,3.37
15614.03,3.23
15638.87,3.49
15663.71,4.02
15688.56,3.77
15713.40,2.76
15738.24,2.06
15763.08,1.82
15787.93,1.43
15812.77,0.92
15837.61,0.77
15862.46,0.62
15887.30,0.43
15912.14,0.20
15936.98,0.10
15961.83,0.31
15986.67,0.62
16011.51,1.03
16036.35,1.83
16061.20,2.75
16086.04,3.17
16110.88,3.17
16135.72,3.03
16160.57,2.56
16185.41,1.98
16210.25,2.04
16235.09,2.09
16259.94,3.09
16284.78,4.27
16309.62,4.81
16334.46,4.72
16359.31,4.61
16384.15,4.74
16408.99,4.75
16433.84,4.47
16458.68,4.07
16483.52,3.58
16508.36,2.83
16533.21,1.96
16558.05,1.73
16582.89,1.50
16607.73,1.66
16632.58,1.97
16657.42,1.77
16682.26,1.12
16707.10,1.37
16731.95,3.13
16756.79,4.51
16781.63,3.63
16806.47,1.45
16831.32,0.27
16856.16,0.92
16881.00,1.87
16905.84,1.59
16930.69,1.17
16955.53,0.74
16980.37,0.85
17005.21,2.04
17030.06,3.48
17054.90,4.31
17079.74,4.06
17104.58,3.06
17129.43,1.93
17154.27,1.14
17179.11,0.87
17203.96,0.73
17228.80,0.09
17253.64,-0.89
17278.48,-1.05
17303.33,-1.20
17328.17,-0.02
17353.01,2.17
17377.85,3.75
17402.70,3.50
17427.54,1.84
17452.38,0.94
17477.22,2.31
17502.07,4.28
17526.91,4.41
17551.75,3.18
17576.59,2.28
17601.44,1.71
17626.28,1.08
17651.12,0.46
17675.96,-1.01
17700.81,-1.10
17725.65,0.10
17750.49,1.21
17775.33,2.21
17800.18,3.30
17825.02,3.30
17849.86,1.79
17874.71,0.12
17899.55,-0.65
17924.39,-0.99
17949.23,-1.90
17974.07,-3.01
17998.92,-2.93
18023.76,-2.85
18048.60,-1.52
18073.45,-0.79
18098.29,-1.13
18123.13,-1.54
18147.97,-1.49
18172.82,-1.07
18197.66,-0.33
18222.50,0.62
18247.34,1.65
18272.19,2.37
18297.03,2.48
18321.87,2.45
18346.71,2.55
18371.56,2.66
18396.40,2.55
18421.24,1.64
18446.08,0.19
18470.93,-1.25
18495.77,-1.97
18520.61,-1.42
18545.46,0.27
